EFF   5750.  GRAVITY 4.50000  SDSC GRID  [-0.5]   VTURB 2.0 KM/S    L/H 1.25                            
  wl(nm)    Inu(ergs/cm**2/s/hz/ster) for 17 mu in 1221 frequency intervals
            1.000   .900  .800  .700  .600  .500  .400  .300  .250  .200  .150  .125  .100  .075  .050  .025  .010
    9.09 0.000E+00     0     0     0     0     0     0     0     0     0     0     0     0     0     0     0     0
    9.35 0.000E+00     0     0     0     0     0     0     0     0     0     0     0     0     0     0     0     0
    9.61 0.000E+00     0     0     0     0     0     0     0     0     0     0     0     0     0     0     0     0
    9.77 0.000E+00     0     0     0     0     0     0     0     0     0     0     0     0     0     0     0     0
    9.96 0.000E+00     0     0     0     0     0     0     0     0     0     0     0     0     0     0     0     0
   10.20 0.000E+00     0     0     0     0     0     0     0     0     0     0     0     0     0     0     0     0
   10.38 0.000E+00     0     0     0     0     0     0     0     0     0     0     0     0     0     0     0     0
   10.56 0.000E+00     0     0     0     0     0     0     0     0     0     0     0     0     0     0     0     0
   10.77 0.000E+00     0     0     0     0     0     0     0     0     0     0     0     0     0     0     0     0
   11.04 0.000E+00     0     0     0     0     0     0     0     0     0     0     0     0     0     0     0     0
   11.40 0.000E+00     0     0     0     0     0     0     0     0     0     0     0     0     0     0     0     0
   11.78 0.000E+00     0     0     0     0     0     0     0     0     0     0     0     0     0     0     0     0
   12.13 0.000E+00     0     0     0     0     0     0     0     0     0     0     0     0     0     0     0     0
   12.48 0.000E+00     0     0     0     0     0     0     0     0     0     0     0     0     0     0     0     0
   12.71 0.000E+00     0     0     0     0     0     0     0     0     0     0     0     0     0     0     0     0
   12.84 0.000E+00     0     0     0     0     0     0     0     0     0     0     0     0     0     0     0     0
   13.05 0.000E+00     0     0     0     0     0     0     0     0     0     0     0     0     0     0     0     0
   13.24 0.000E+00     0     0     0     0     0     0     0     0     0     0     0     0     0     0     0     0
   13.39 0.000E+00     0     0     0     0     0     0     0     0     0     0     0     0     0     0     0     0
   13.66 0.000E+00     0     0     0     0     0     0     0     0     0     0     0     0     0     0     0     0
   13.98 0.000E+00     0     0     0     0     0     0     0     0     0     0     0     0     0     0     0     0
   14.33 0.000E+00     0     0     0     0     0     0     0     0     0     0     0     0     0     0     0     0
   14.72 0.000E+00     0     0     0     0     0     0     0     0     0     0     0     0     0     0     0     0
   15.10 0.000E+00     0     0     0     0     0     0     0     0     0     0     0     0     0     0     0     0
   15.52 0.000E+00     0     0     0     0     0     0     0     0     0     0     0     0     0     0     0     0
   15.88 0.000E+00     0     0     0     0     0     0     0     0     0     0     0     0     0     0     0     0
   16.20 0.000E+00     0     0     0     0     0     0     0     0     0     0     0     0     0     0     0     0
   16.60 0.000E+00     0     0     0     0     0     0     0     0     0     0     0     0     0     0     0     0
   17.03 0.000E+00     0     0     0     0     0     0     0     0     0     0     0     0     0     0     0     0
   17.34 0.000E+00     0     0     0     0     0     0     0     0     0     0     0     0     0     0     0     0
   17.68 0.000E+00     0     0     0     0     0     0     0     0     0     0     0     0     0     0     0     0
   18.02 0.000E+00     0     0     0     0     0     0     0     0     0     0     0     0     0     0     0     0
   18.17 0.000E+00     0     0     0     0     0     0     0     0     0     0     0     0     0     0     0     0
   18.61 0.000E+00     0     0     0     0     0     0     0     0     0     0     0     0     0     0     0     0
   19.10 0.000E+00     0     0     0     0     0     0     0     0     0     0     0     0     0     0     0     0
   19.39 0.000E+00     0     0     0     0     0     0     0     0     0     0     0     0     0     0     0     0
   19.84 0.000E+00     0     0     0     0     0     0     0     0     0     0     0     0     0     0     0     0
   20.18 0.000E+00     0     0     0     0     0     0     0     0     0     0     0     0     0     0     0     0
   20.50 0.000E+00     0     0     0     0     0     0     0     0     0     0     0     0     0     0     0     0
   21.05 0.000E+00     0     0     0     0     0     0     0     0     0     0     0     0     0     0     0     0
   21.62 0.000E+00     0     0     0     0     0     0     0     0     0     0     0     0     0     0     0     0
   21.98 0.000E+00     0     0     0     0     0     0     0     0     0     0     0     0     0     0     0     0
   22.30 0.000E+00     0     0     0     0     0     0     0     0     0     0     0     0     0     0     0     0
   22.68 0.000E+00     0     0     0     0     0     0     0     0     0     0     0     0     0     0     0     0
   23.00 0.000E+00     0     0     0     0     0     0     0     0     0     0     0     0     0     0     0     0
   23.40 0.000E+00     0     0     0     0     0     0     0     0     0     0     0     0     0     0     0     0
   24.00 0.000E+00     0     0     0     0     0     0     0     0     0     0     0     0     0     0     0     0
   24.65 0.000E+00     0     0     0     0     0     0     0     0     0     0     0     0     0     0     0     0
   25.24 0.000E+00     0     0     0     0     0     0     0     0     0     0     0     0     0     0     0     0
   25.68 0.000E+00     0     0     0     0     0     0     0     0     0     0     0     0     0     0     0     0
   26.00 0.000E+00     0     0     0     0     0     0     0     0     0     0     0     0     0     0     0     0
   26.40 0.000E+00     0     0     0     0     0     0     0     0     0     0     0     0     0     0     0     0
   26.85 0.000E+00     0     0     0     0     0     0     0     0     0     0     0     0     0     0     0     0
   27.35 0.000E+00     0     0     0     0     0     0     0     0     0     0     0     0     0     0     0     0
   27.85 0.000E+00     0     0     0     0     0     0     0     0     0     0     0     0     0     0     0     0
   28.40 0.000E+00     0     0     0     0     0     0     0     0     0     0     0     0     0     0     0     0
   29.00 0.000E+00     0     0     0     0     0     0     0     0     0     0     0     0     0     0     0     0
   29.60 0.000E+00     0     0     0     0     0     0     0     0     0     0     0     0     0     0     0     0
   30.10 0.000E+00     0     0     0     0     0     0     0     0     0     0     0     0     0     0     0     0
   30.80 0.000E+00     0     0     0     0     0     0     0     0     0     0     0     0     0     0     0     0
   31.80 0.000E+00     0     0     0     0     0     0     0     0     0     0     0     0     0     0     0     0
   32.80 0.000E+00     0     0     0     0     0     0     0     0     0     0     0     0     0     0     0     0
   33.80 0.000E+00     0     0     0     0     0     0     0     0     0     0     0     0     0     0     0     0
   34.80 0.000E+00     0     0     0     0     0     0     0     0     0     0     0     0     0     0     0     0
   35.70 0.000E+00     0     0     0     0     0     0     0     0     0     0     0     0     0     0     0     0
   36.60 0.000E+00     0     0     0     0     0     0     0     0     0     0     0     0     0     0     0     0
   37.50 0.000E+00     0     0     0     0     0     0     0     0     0     0     0     0     0     0     0     0
   38.50 0.000E+00     0     0     0     0     0     0     0     0     0     0     0     0     0     0     0     0
   39.50 0.000E+00     0     0     0     0     0     0     0     0     0     0     0     0     0     0     0     0
   40.50 0.000E+00     0     0     0     0     0     0     0     0     0     0     0     0     0     0     0     0
   41.40 0.000E+00     0     0     0     0     0     0     0     0     0     0     0     0     0     0     0     0
   42.20 0.000E+00     0     0     0     0     0     0     0     0     0     0     0     0     0     0     0     0
   43.00 0.000E+00     0     0     0     0     0     0     0     0     0     0     0     0     0     0     0     0
   44.10 0.000E+00     0     0     0     0     0     0     0     0     0     0     0     0     0     0     0     0
   45.10 0.000E+00     0     0     0     0     0     0     0     0     0     0     0     0     0     0     0     0
   46.00 0.000E+00     0     0     0     0     0     0     0     0     0     0     0     0     0     0     0     0
   47.00 0.000E+00     0     0     0     0     0     0     0     0     0     0     0     0     0     0     0     0
   48.00 0.000E+00     0     0     0     0     0     0     0     0     0     0     0     0     0     0     0     0
   49.00 0.000E+00     0     0     0     0     0     0     0     0     0     0     0     0     0     0     0     0
   50.00 0.000E+00     0     0     0     0     0     0     0     0     0     0     0     0     0     0     0     0
   50.60 0.000E+00     0     0     0     0     0     0     0     0     0     0     0     0     0     0     0     0
   51.20 0.000E+00     0     0     0     0     0     0     0     0     0     0     0     0     0     0     0     0
   52.00 0.000E+00     0     0     0     0     0     0     0     0     0     0     0     0     0     0     0     0
   53.00 0.000E+00     0     0     0     0     0     0     0     0     0     0     0     0     0     0     0     0
   54.00 0.000E+00     0     0     0     0     0     0     0     0     0     0     0     0     0     0     0     0
   55.00 0.000E+00     0     0     0     0     0     0     0     0     0     0     0     0     0     0     0     0
   56.00 0.000E+00     0     0     0     0     0     0     0     0     0     0     0     0     0     0     0     0
   57.00 0.000E+00     0     0     0     0     0     0     0     0     0     0     0     0     0     0     0     0
   58.00 0.000E+00     0     0     0     0     0     0     0     0     0     0     0     0     0     0     0     0
   59.00 0.000E+00     0     0     0     0     0     0     0     0     0     0     0     0     0     0     0     0
   60.00 0.000E+00     0     0     0     0     0     0     0     0     0     0     0     0     0     0     0     0
   61.00 0.000E+00     0     0     0     0     0     0     0     0     0     0     0     0     0     0     0     0
   62.00 0.000E+00     0     0     0     0     0     0     0     0     0     0     0     0     0     0     0     0
   63.00 0.000E+00     0     0     0     0     0     0     0     0     0     0     0     0     0     0     0     0
   64.00 0.000E+00     0     0     0     0     0     0     0     0     0     0     0     0     0     0     0     0
   65.00 0.000E+00     0     0     0     0     0     0     0     0     0     0     0     0     0     0     0     0
   65.80 0.000E+00     0     0     0     0     0     0     0     0     0     0     0     0     0     0     0     0
   66.50 0.000E+00     0     0     0     0     0     0     0     0     0     0     0     0     0     0     0     0
   67.50 0.000E+00     0     0     0     0     0     0     0     0     0     0     0     0     0     0     0     0
   68.50 0.000E+00     0     0     0     0     0     0     0     0     0     0     0     0     0     0     0     0
   69.50 0.000E+00     0     0     0     0     0     0     0     0     0     0     0     0     0     0     0     0
   70.50 0.000E+00     0     0     0     0     0     0     0     0     0     0     0     0     0     0     0     0
   71.60 0.000E+00     0     0     0     0     0     0     0     0     0     0     0     0     0     0     0     0
   72.60 0.000E+00     0     0     0     0     0     0     0     0     0     0     0     0     0     0     0     0
   73.50 0.000E+00     0     0     0     0     0     0     0     0     0     0     0     0     0     0     0     0
   74.50 0.000E+00     0     0     0     0     0     0     0     0     0     0     0     0     0     0     0     0
   75.50 0.000E+00     0     0     0     0     0     0     0     0     0     0     0     0     0     0     0     0
   76.50 0.000E+00     0     0     0     0     0     0     0     0     0     0     0     0     0     0     0     0
   77.50 0.000E+00     0     0     0     0     0     0     0     0     0     0     0     0     0     0     0     0
   78.50 0.000E+00     0     0     0     0     0     0     0     0     0     0     0     0     0     0     0     0
   79.50 0.000E+00     0     0     0     0     0     0     0     0     0     0     0     0     0     0     0     0
   80.50 0.000E+00     0     0     0     0     0     0     0     0     0     0     0     0     0     0     0     0
   81.50 0.000E+00     0     0     0     0     0     0     0     0     0     0     0     0     0     0     0     0
   82.50 0.000E+00     0     0     0     0     0     0     0     0     0     0     0     0     0     0     0     0
   83.50 0.000E+00     0     0     0     0     0     0     0     0     0     0     0     0     0     0     0     0
   84.50 0.000E+00     0     0     0     0     0     0     0     0     0     0     0     0     0     0     0     0
   85.50 0.000E+00     0     0     0     0     0     0     0     0     0     0     0     0     0     0     0     0
   86.50 0.000E+00     0     0     0     0     0     0     0     0     0     0     0     0     0     0     0     0
   87.50 0.000E+00     0     0     0     0     0     0     0     0     0     0     0     0     0     0     0     0
   88.50 0.000E+00     0     0     0     0     0     0     0     0     0     0     0     0     0     0     0     0
   89.50 0.000E+00     0     0     0     0     0     0     0     0     0     0     0     0     0     0     0     0
   90.50 0.000E+00     0     0     0     0     0     0     0     0     0     0     0     0     0     0     0     0
   91.50 0.000E+00     0     0     0     0     0     0     0     0     0     0     0     0     0     0     0     0
   92.50 1.817E-18 91855 84150 76995 70446 64612 59659 55861 54447 53412 52774 52598 52504 52466 52460 52455 52455
   93.50 2.594E-18 92251 84965 78142 71935 66423 61796 58211 56862 55937 55320 55166 55089 55050 55050 55050 55050
   94.50 3.800E-18 92342 85132 78447 72316 66895 62342 58842 57553 56632 56053 55921 55816 55789 55789 55789 55789
   95.50 5.744E-18 92183 84819 77925 71623 66017 61281 57591 56233 55240 54631 54474 54370 54335 54335 54335 54335
   96.50 8.455E-18 92147 84719 77776 71413 65748 60946 57209 55825 54808 54193 54015 53933 53897 53885 53885 53885
   97.50 1.162E-17 92599 85602 79071 73090 67780 63287 59819 58537 57608 57048 56893 56816 56781 56773 56773 56773
   98.50 1.691E-17 92549 85452 78829 72797 67416 62803 59255 57907 56943 56345 56186 56097 56062 56056 56050 56050
   99.50 2.379E-17 92686 85750 79235 73266 67970 63430 59941 58638 57671 57083 56957 56873 56831 56831 56831 56831
  100.50 3.456E-17 92477 85330 78646 72483 66985 62297 58623 57263 56279 55642 55498 55411 55353 55353 55353 55353
  101.50 4.780E-17 92657 85649 79100 73054 67657 63054 59456 58117 57134 56548 56381 56297 56255 56255 56255 56234
  102.50 5.808E-17 93853 88068 82662 77720 73364 69714 66925 65926 65220 64790 64687 64635 64618 64618 64601 64601
  103.50 9.229E-17 92697 85741 79218 73193 67797 63192 59584 58240 57265 56658 56496 56409 56377 56366 56366 56366
  104.50 1.293E-16 92653 85538 78886 72753 67231 62498 58778 57386 56357 55723 55553 55460 55422 55414 55414 55406
  105.50 1.695E-16 93038 86372 80059 74218 69027 64543 61003 59705 58732 58142 57976 57894 57858 57853 57853 57847
  106.50 2.331E-16 92921 86186 79837 73917 68640 64050 60489 59116 58130 57529 57357 57272 57229 57229 57229 57229
  107.50 3.165E-16 92923 86161 79747 73839 68499 63886 60284 58926 57915 57283 57125 57030 56998 56967 56967 56967
  108.50 4.306E-16 92824 85973 79494 73479 68045 63377 59661 58291 57246 56619 56433 56340 56317 56294 56294 56294
  109.50 5.566E-16 93137 86561 80363 74596 69404 64930 61409 60079 59109 58516 58354 58264 58229 58211 58211 58211
  110.50 2.696E-15 91432 82752 73999 65171 56269 47329 38390 33939 29566 25319 23275 21320 19496 17878 16639 16246
  111.50 4.655E-15 91665 83201 74586 65800 56821 47648 38260 33491 28700 23888 21525 19201 16960 14887 13188 12610
  112.50 7.204E-15 91671 83204 74570 65755 56718 47446 37882 32996 28040 23043 20544 18073 15672 13408 11512 10840
  113.50 1.142E-14 91506 82933 74159 65184 55989 46541 36786 31786 26716 21594 19037 16497 14028 11699  9737  9046
  114.50 1.531E-14 91639 83083 74331 65382 56179 46708 36911 31881 26760 21574 18981 16401 13880 11502  9497  8792
  115.50 1.808E-14 91704 83241 74558 65708 56582 47146 37400 32395 27306 22157 19580 17024 14530 12190 10232  9569
  116.50 2.368E-14 91807 83404 74789 65921 56799 47340 37525 32470 27318 22099 19485 16896 14371 12006 10051  9400
  117.50 3.062E-14 91803 83410 74788 65937 56760 47257 37394 32309 27129 21888 19265 16672 14154 11806  9902  9301
  118.50 3.203E-14 91883 83578 75023 66250 57165 47737 37996 33000 27914 22819 20293 17818 15448 13294 11645 11199
  119.50 2.562E-14 91842 83489 74941 66237 57377 48322 39188 34606 30101 25753 23689 21745 19992 18556 17670 17525
  120.50 2.175E-14 91816 83540 75172 66759 58299 49931 41793 37903 34225 30892 29416 28124 27080 26363 26060 26037
  121.50 8.022E-15 97993 96123 94390 92845 91498 90414 89629 89354 89180 89068 89043 89030 89018 89018 89005 89005
  122.50 2.983E-14 92089 84143 76098 68052 60007 52095 44452 40831 37446 34395 33074 31921 31002 30386 30134 30117
  123.50 7.980E-14 91867 83534 74975 66178 57105 47769 38195 33358 28509 23759 21466 19261 17243 15526 14411 14211
  124.50 1.333E-13 92048 83871 75469 66737 57697 48282 38455 33383 28215 22986 20383 17809 15326 13046 11260 10758
  125.50 1.817E-13 92075 83930 75564 66868 57898 48492 38657 33555 28327 22999 20319 17655 15047 12592 10561  9895
  126.50 2.120E-13 91981 83774 75330 66604 57642 48302 38557 33533 28406 23203 20594 18000 15472 13099 11132 10481
  127.50 2.740E-13 92044 83905 75547 66898 57956 48686 38942 33909 28741 23456 20785 18117 15485 12978 10828 10062
  128.50 3.398E-13 91936 83667 75221 66480 57504 48175 38434 33402 28264 23028 20388 17763 15182 12737 10668  9947
  129.50 4.134E-13 92042 83866 75496 66860 57910 48621 38897 33866 28689 23416 20745 18077 15445 12934 10784 10022
  130.50 4.748E-13 91765 83382 74810 66028 56992 47683 38037 33067 28033 22936 20392 17871 15417 13117 11217 10586
  131.50 5.922E-13 91912 83637 75160 66447 57481 48176 38517 33519 28419 23235 20635 18034 15495 13083 11050 10351
  132.50 6.529E-13 91867 83581 75111 66411 57482 48246 38674 33742 28749 23679 21136 18625 16174 13878 11974 11339
  133.50 7.377E-13 91948 83733 75329 66694 57815 48638 39135 34242 29280 24251 21743 19249 16836 14572 12718 12109
  134.50 8.809E-13 91929 83710 75287 66670 57793 48643 39164 34294 29356 24350 21853 19378 16971 14724 12862 12237
  135.50 1.030E-12 91981 83806 75437 66854 58019 48893 39427 34563 29621 24621 22126 19650 17252 15010 13165 12563
  136.50 1.142E-12 91944 83800 75447 66891 58109 49054 39720 34930 30088 25201 22776 20377 18056 15902 14142 13564
  137.50 1.256E-12 92038 83997 75693 67229 58535 49578 40342 35613 30828 26019 23631 21282 19013 16919 15239 14713
  138.50 1.403E-12 92160 84248 76051 67733 59159 50314 41183 36507 31775 27006 24633 22295 20036 17947 16251 15702
  139.50 1.613E-12 92250 84377 76255 68010 59467 50682 41606 36956 32244 27502 25146 22815 20564 18475 16782 16237
  140.50 1.932E-12 92288 84420 76346 68064 59576 50776 41677 37008 32272 27495 25114 22764 20487 18370 16646 16087
  141.50 2.240E-12 92321 84464 76429 68214 59732 50982 41946 37299 32585 27826 25455 23112 20839 18719 16987 16420
  142.50 2.567E-12 92404 84651 76743 68563 60187 51500 42462 37834 33120 28360 25980 23623 21336 19205 17468 16907
  143.50 3.046E-12 92416 84701 76789 68647 60243 51576 42548 37919 33191 28395 26001 23631 21320 19160 17374 16783
  144.20 3.957E-12 92419 84635 76674 68461 59970 51150 41900 37124 32221 27192 24660 22125 19629 17248 15219 14511
  144.70 3.576E-12 92562 84955 77153 69100 60822 52209 43261 38647 33949 29139 26737 24346 22005 19799 17956 17338
  145.50 4.261E-12 92513 84863 77024 68927 60573 51889 42854 38160 33372 28514 26074 23633 21256 19010 17142 16522
  146.50 5.345E-12 92591 85014 77194 69149 60786 52067 42937 38185 33283 28269 25725 23181 20674 18251 16176 15437
  147.50 6.167E-12 92638 85098 77347 69337 61035 52359 43246 38511 33614 28604 26042 23480 20934 18485 16377 15611
  148.50 6.726E-12 92715 85251 77580 69655 61418 52840 43830 39147 34315 29364 26851 24324 21826 19432 17365 16637
  149.50 8.829E-12 92661 85117 77347 69306 60947 52203 42972 38158 33186 28055 25450 22823 20217 17703 15528 14747
  150.50 1.072E-11 92733 85224 77481 69459 61101 52332 43060 38190 33153 27938 25271 22575 19879 17257 14953 14104
  151.20 8.499E-12 92834 85492 77962 70196 62160 53818 45099 40581 35969 31263 28898 26533 24215 22026 20191 19591
  151.70 1.065E-11 92808 85455 77869 70009 61822 53249 44216 39493 34620 29615 27070 24516 21981 19568 17512 16826
  152.50 2.097E-11 92990 85694 78112 70243 61993 53267 43939 38979 33763 28231 25317 22284 19118 15804 12394 10491
  153.50 3.209E-11 93113 85977 78560 70739 62512 53755 44313 39233 33873 28155 25111 21913 18526 14908 11013  8651
  154.50 2.722E-11 93130 86040 78619 70904 62785 54151 44930 40044 34860 29368 26470 23442 20257 16877 13273 11091
  155.50 4.158E-11 93338 86412 79149 71501 63420 54786 45430 40404 35065 29341 26287 23050 19603 15871 11744  9101
  156.50 4.032E-11 93378 86483 79291 71726 63740 55184 45957 40997 35739 30084 27083 23899 20516 16863 12847 10298
  157.50 6.709E-11 93516 86734 79624 72112 64108 55508 46132 41049 35639 29781 26636 23297 19720 15785 11341  8325
  158.50 8.105E-11 93572 86860 79803 72338 64392 55842 46477 41407 35978 30080 26909 23529 19889 15879 11277  8115
  159.50 9.455E-11 93665 87023 80042 72649 64749 56235 46885 41809 36372 30460 27266 23871 20190 16118 11412  8134
  160.50 1.033E-10 93659 87018 80029 72633 64743 56225 46893 41820 36389 30484 27299 23892 20203 16128 11423  8174
  161.50 1.204E-10 93605 86877 79809 72351 64402 55839 46470 41387 35947 30042 26852 23455 19784 15731 11071  7886
  162.50 1.332E-10 93769 87237 80330 73011 65195 56742 47455 42387 36952 31021 27808 24369 20638 16471 11637  8251
  163.50 1.583E-10 93620 86987 79975 72584 64687 56159 46797 41699 36248 30310 27100 23677 19975 15869 11143  7865
  164.50 2.201E-10 93685 87097 80145 72785 64925 56383 47024 41913 36420 30432 27183 23712 19936 15725 10800  7269
  165.50 1.514E-10 93527 86724 79657 72127 64168 55621 46301 41268 35905 30112 27001 23705 20165 16301 11955  9089
  166.50 2.577E-10 93752 87194 80326 72992 65192 56694 47381 42297 36818 30850 27617 24160 20396 16197 11265  7695
  167.20 1.974E-10 93566 86778 79737 72239 64286 55775 46444 41398 36018 30198 27072 23754 20187 16282 11864  8875
  167.70 5.646E-10 88771 79880 72264 65197 58183 50903 43022 38735 34095 28959 26142 23078 19731 15944 11454  8121
  168.50 6.252E-10 91187 83525 76392 69370 62156 54527 46161 41571 36596 31062 28023 24712 21081 16955 12011  8290
  169.50 7.410E-10 91660 84292 77382 70540 63482 55978 47706 43131 38138 32551 29447 26073 22321 18043 12860  8901
  170.50 8.885E-10 89747 81272 73787 66708 59651 52279 44299 39932 35194 29938 27046 23894 20405 16443 11671  8060
  171.50 1.146E-09 81553 68543 59136 51850 45567 39529 33264 29913 26318 22373 20218 17888 15332 12443  9023  6514
  172.50 1.456E-09 81319 68187 58771 51545 45350 39416 33255 29952 26401 22493 20350 18029 15474 12576  9100  6497
  173.50 2.097E-09 77253 61564 50835 43319 37516 32389 27287 24597 21726 18584 16862 15002 12947 10620  7830  5751
  174.50 2.851E-09 77552 61663 50649 42827 36864 31764 26791 24188 21424 18394 16731 14932 12943 10677  7948  5896
  175.50 4.697E-09 74473 56462 44220 35980 30232 25740 21652 19587 17407 15039 13747 12348 10805  9044  6926  5350
  176.50 3.384E-09 78398 62973 52157 44415 38505 33422 28425 25804 22999 19911 18206 16348 14273 11882  8951  6693
  177.50 4.619E-09 75882 58562 46525 38255 32345 27625 23252 21035 18690 16136 14739 13226 11550  9634  7313  5564
  178.50 6.705E-09 74571 56301 43684 35153 29232 24743 20776 18792 16719 14459 13229 11894 10416  8720  6661  5104
  179.50 1.027E-08 72629 52746 38968 29815 23836 19708 16397 14830 13223 11519 10594  9604  8511  7271  5785  4709
  180.50 1.058E-08 73601 54149 40454 31219 25095 20822 17382 15747 14074 12268 11295 10236  9071  7738  6133  4961
  181.50 7.939E-09 75639 57954 45560 37045 31049 26427 22295 20229 18050 15682 14385 12974 11411  9612  7412  5745
  182.50 1.086E-08 74724 56077 42901 33904 27772 23324 19604 17808 15939 13941 12845 11667 10359  8849  7012  5645
  183.50 1.133E-08 75313 57079 44157 35278 29162 24625 20768 18870 16893 14757 13583 12304 10883  9250  7237  5709
  184.50 4.729E-09 84944 73504 64707 57560 51258 45232 38930 35525 31825 27680 25354 22796 19918 16536 12271  8833
  185.50 1.415E-08 75053 56198 42594 33173 26792 22304 18707 17004 15244 13357 12318 11201  9951  8509  6730  5389
  186.50 2.039E-08 73467 53507 39127 29333 22898 18607 15405 13953 12496 10956 10128  9240  8254  7131  5777  4800
  187.50 2.050E-08 74244 54732 40585 30849 24346 19922 16556 15015 13459 11810 10922  9961  8898  7673  6176  5068
  188.50 2.224E-08 74550 55081 40886 31021 24402 19906 16520 14987 13440 11808 10926  9978  8925  7720  6246  5162
  189.50 3.189E-08 73942 53904 39229 29078 22352 17934 14763 13374 12004 10574  9809  8984  8075  7030  5757  4829
  190.50 2.910E-08 74433 54811 40412 30402 23704 19213 15893 14412 12938 11388 10553  9656  8663  7519  6120  5082
  191.50 3.483E-08 74017 54120 39592 29572 22920 18510 15286 13853 12423 10919 10106  9231  8254  7126  5725  4657
  192.50 2.648E-08 76095 57968 44826 35600 29199 24547 20714 18867 16956 14890 13754 12511 11114  9471  7390  5721
  193.50 1.081E-08 85476 74200 65365 58178 51943 46031 39898 36577 32942 28834 26522 23950 21008 17521 13025  9211
  194.50 4.211E-08 74923 55569 41344 31370 24650 20076 16675 15151 13629 12023 11156 10216  9166  7941  6402  5205
  195.50 4.451E-08 74815 55471 41272 31341 24669 20133 16733 15199 13662 12038 11157 10200  9131  7881  6311  5078
  196.70 6.542E-08 74457 54525 39728 29303 22333 17762 14540 13169 11836 10460  9726  8938  8063  7048  5787  4832
  197.60 5.063E-08 75489 56607 42702 32886 26190 21548 17993 16380 14758 13040 12105 11090  9949  8608  6899  5536
  198.40 6.829E-08 75560 56187 41499 30927 23678 18831 15434 13992 12604 11179 10419  9603  8700  7651  6342  5346
  199.50 8.173E-08 75480 55793 40671 29671 22134 17179 13838 12492 11227  9947  9273  8554  7762  6851  5727  4898
  200.50 7.357E-08 76227 57048 42232 31344 23760 18662 15156 13715 12345 10953 10217  9428  8555  7545  6287  5335
  201.50 8.674E-08 75963 56571 41596 30609 23000 17927 14457 13050 11713 10368  9656  8897  8056  7084  5870  4941
  202.50 5.237E-08 77754 60015 46382 36319 29120 23983 20031 18260 16487 14608 13588 12477 11226  9746  7840  6276
  203.50 1.024E-07 76211 56865 41816 30713 22959 17793 14297 12881 11563 10244  9544  8799  7977  7022  5826  4901
  204.50 1.300E-07 76208 56692 41385 30000 22023 16738 13246 11892 10646  9431  8792  8115  7380  6530  5472  4672
  205.50 1.237E-07 76483 57292 42280 31116 23258 17971 14382 12943 11609 10267  9572  8820  7989  7027  5808  4846
  206.50 1.202E-07 76955 58062 43195 32055 24126 18719 15000 13502 12105 10699  9958  9176  8301  7285  5998  4971
  207.40 1.443E-07 76438 57179 42148 30977 23125 17852 14283 12862 11532 10208  9508  8760  7935  6965  5726  4737
  207.80 3.523E-07 80500 63014 47800 34999 24749 17034 11700  9821  8382  7295  6852  6455  6100  5782  5563  5691
  208.50 4.427E-07 81545 64649 49560 36548 25796 17515 11696  9657  8132  7036  6618  6268  5979  5765  5717  6054
  209.50 4.013E-07 81585 64789 49788 36855 26215 17964 12128 10057  8490  7341  6893  6509  6182  5918  5801  6050
  210.50 3.800E-07 81921 65368 50605 37789 27158 18853 12871 10713  9055  7826  7342  6926  6574  6289  6153  6403
  211.50 4.831E-07 82302 65949 51211 38336 27510 18938 12712 10457  8733  7475  6990  6585  6245  5982  5872  6129
  212.50 3.946E-07 82463 66346 51799 39103 28434 19914 13642 11320  9506  8135  7585  7108  6685  6320  6059  6151
  213.50 3.909E-07 82681 66692 52290 39627 28959 20397 14034 11660  9788  8363  7790  7288  6846  6457  6173  6252
  214.50 5.463E-07 82976 67124 52682 39868 28958 20117 13527 11082  9182  7783  7245  6798  6429  6141  6017  6277
  215.50 5.259E-07 82905 67028 52558 39760 28865 20061 13525 11105  9224  7834  7294  6840  6458  6149  5992  6208
  216.50 4.176E-07 82759 66882 52586 40038 29454 20958 14610 12220 10318  8848  8245  7713  7234  6806  6475  6518
  217.50 4.336E-07 82634 66628 52237 39622 29013 20544 14280 11949 10108  8688  8102  7581  7108  6677  6331  6351
  218.50 6.313E-07 83621 68256 54095 41391 30382 21305 14367 11735  9661  8113  7518  7020  6612  6290  6132  6369
  219.50 6.298E-07 83169 67498 53223 40568 29740 20927 14289 11791  9819  8325  7733  7220  6774  6389  6121  6219
  220.50 6.068E-07 83504 68111 54021 41447 30603 21704 14893 12292 10219  8635  8001  7452  6973  6556  6244  6304
  221.50 4.389E-07 83117 67578 53566 41239 30781 22294 15837 13349 11321  9690  8988  8339  7719  7102  6473  6170
  222.50 5.877E-07 83869 68794 54926 42505 31717 22767 15799 13095 10905  9197  8496  7876  7318  6806  6359  6270
  223.50 8.265E-07 84319 69522 55777 43291 32317 23061 15741 12874 10557  8777  8077  7489  6999  6603  6364  6542
  224.50 7.841E-07 84428 69698 56013 43553 32572 23301 15955 13060 10719  8916  8202  7596  7082  6652  6359  6466
  225.50 5.374E-07 83904 68943 55266 43059 32490 23707 16838 14137 11907 10112  9347  8651  7998  7363  6736  6440
  226.50 4.747E-07 83442 68190 54392 42237 31852 23362 16832 14274 12157 10415  9652  8934  8235  7518  6745  6265
  227.50 4.929E-07 83749 68736 55102 43051 32725 24224 17643 15048 12891 11112 10329  9592  8874  8150  7391  6991
  228.50 7.859E-07 84629 70123 56623 44357 33503 24278 16898 13959 11532  9626  8856  8191  7617  7120  6750  6792
  229.50 6.086E-07 84407 69783 56293 44151 33520 24581 17499 14680 12343 10460  9666  8952  8293  7668  7095  6918
  230.50 8.240E-07 84951 70680 57330 45121 34248 24939 17403 14369 11850  9856  9042  8339  7722  7181  6744  6712
  231.50 6.786E-07 84394 69791 56381 44297 33746 24860 17801 14972 12598 10660  9828  9061  8333  7610  6848  6403
  232.50 5.591E-07 84600 70256 57074 45233 34877 26131 19138 16292 13881 11848 10943 10082  9236  8360  7376  6695
  233.50 4.462E-07 84155 69655 56589 45069 35208 27051 20558 17891 15554 13458 12456 11448 10390  9213  7748  6506
  234.50 2.482E-07 84770 71072 58985 48469 39533 32083 25935 23243 20701 18187 16882 15492 13952 12143  9754  7575
  235.50 6.742E-07 84441 69964 56719 44868 34530 25853 18911 16108 13718 11695 10786  9914  9046  8131  7071  6258
  236.50 2.947E-07 85104 71598 59552 49033 39973 32362 26037 23264 20665 18117 16800 15409 13868 12060  9661  7448
  237.50 4.566E-07 84406 70171 57403 46167 36553 28581 22164 19488 17098 14888 13802 12685 11489 10120  8353  6763
  238.50 1.907E-07 86523 74410 63713 54274 46120 39030 32753 29785 26801 23655 21940 20068 17939 15375 11909  8684
  239.50 2.820E-07 85390 72234 60603 50496 41844 34560 28408 25635 22957 20238 18798 17241 15496 13411 10592  7943
  240.50 2.856E-07 85364 72269 60749 50735 42227 35049 28957 26183 23480 20704 19219 17612 15805 13641 10707  7941
  241.50 3.967E-07 85631 72322 60222 49408 39904 31787 25006 22092 19435 16947 15712 14439 13068 11492  9458  7666
  242.50 8.781E-07 85731 72201 59538 47887 37410 28277 20658 17481 14736 12413 11400 10454  9546  8625  7620  6953
  243.50 8.451E-07 86108 72891 60466 48988 38587 29452 21737 18483 15643 13229 12152 11162 10207  9244  8203  7540
  244.50 1.062E-06 86318 73173 60744 49162 38597 29237 21271 17900 14972 12505 11441 10471  9576  8709  7834  7363
  245.50 1.142E-06 86471 73485 61130 49545 38914 29422 21296 17837 14825 12312 11226 10263  9370  8532  7705  7289
  246.50 9.827E-07 85865 72453 59896 48326 37906 28788 21166 17971 15213 12863 11825 10858  9904  8926  7825  7042
  247.50 7.962E-07 85921 72620 60198 48807 38596 29704 22281 19166 16441 14079 12999 11958 10904  9773  8423  7349
  248.50 3.025E-07 85917 73289 62182 52562 44397 37554 31729 29061 26410 23617 22089 20403 18469 16106 12830  9676
  249.50 5.175E-07 86048 73063 61101 50300 40754 32522 25662 22725 20058 17571 16350 15092 13741 12193 10197  8427
  250.50 9.416E-07 85854 72462 59983 48545 38318 29450 22111 19053 16387 14093 13042 12022 10981  9859  8499  7394
  251.30 2.376E-07 88805 78872 70160 62542 55808 49705 43855 40829 37614 34015 31974 29672 26982 23620 18855 14150
  251.80 1.265E-07 95099 90277 85455 80553 75368 69723 63257 59534 55289 50269 47312 43913 39858 34727 27415 20190
  252.50 1.885E-07 90133 81273 73210 65942 59363 53210 47151 43979 40552 36679 34472 31979 29061 25432 20313 15289
  253.50 5.456E-07 87372 75403 64186 53812 44355 35905 28556 25293 22287 19483 18123 16749 15301 13675 11639  9932
  254.50 5.793E-07 87140 75039 63767 53427 44088 35836 28673 25514 22596 19886 18540 17185 15740 14105 12023 10226
  255.50 1.174E-06 87990 76337 65085 54336 44199 34821 26346 22513 19012 15894 14489 13194 12002 10894  9855  9429
  256.50 8.532E-07 87729 75973 64815 54337 44632 35795 27942 24426 21179 18214 16807 15436 14041 12564 10804  9407
  257.50 1.151E-06 87924 76169 64935 54301 44353 35195 26977 23267 19852 16759 15334 13979 12667 11347  9896  8853
  258.50 1.001E-06 87443 75475 64176 53616 43896 35095 27313 23826 20629 17682 16284 14905 13506 11998 10150  8563
  259.50 8.674E-07 87445 75582 64492 54231 44858 36419 28949 25559 22400 19403 17927 16428 14849 13074 10779  8674
  260.50 6.944E-07 87140 75158 64142 54133 45190 37313 30487 27391 24453 21544 20046 18433 16662 14559 11682  8882
  261.50 5.902E-07 87784 76381 65842 56218 47543 39817 32972 29820 26771 23670 22060 20315 18367 16023 12828  9709
  262.50 9.210E-07 87079 74951 63670 53333 44007 35765 28610 25429 22476 19642 18230 16764 15179 13344 10890  8542
  263.50 1.740E-06 88448 77069 66092 55443 45322 35828 27126 23155 19489 16190 14695 13305 12006 10741  9437  8575
  264.50 2.420E-06 88636 77438 66488 55826 45620 35930 26971 22843 19012 15562 14017 12603 11339 10215  9240  8897
  265.50 3.201E-06 89316 78663 68104 57732 47579 37801 28475 24074 19906 16079 14342 12762 11378 10237  9441  9478
  266.50 2.196E-06 88752 77641 66803 56330 46220 36676 27814 23716 19900 16444 14877 13429 12104 10883  9750  9235
  267.50 2.564E-06 88807 77769 66927 56396 46256 36626 27640 23471 19583 16057 14462 12999 11669 10468  9380  8904
  268.50 2.936E-06 89101 78270 67643 57187 47071 37364 28219 23920 19877 16175 14496 12956 11580 10371  9363  9067
  269.50 2.087E-06 88788 77719 66938 56493 46517 37068 28309 24255 20470 17020 15438 13963 12592 11289 10000  9291
  270.50 2.515E-06 89066 78251 67634 57296 47316 37777 28831 24644 20700 17066 15400 13849 12425 11133  9972  9503
  271.50 1.785E-06 88740 77759 67059 56807 46969 37725 29182 25232 21529 18123 16532 15025 13569 12123 10566  9490
  272.50 1.435E-06 87735 75958 64767 54328 44718 36056 28460 25087 22000 19157 17791 16425 14997 13408 11373  9512
  273.50 1.904E-06 88288 76996 66071 55620 45783 36649 28377 24622 21150 17988 16518 15100 13697 12243 10551  9191
  274.50 9.379E-07 88666 77919 67832 58450 49803 41934 34844 31549 28361 25184 23531 21772 19821 17497 14330 11217
  275.50 1.468E-06 88624 77589 67044 57003 47568 38828 30886 27255 23849 20661 19108 17561 15947 14162 11907  9857
  276.50 2.046E-06 88710 77713 67009 56745 46994 37840 29438 25587 22004 18710 17170 15679 14194 12630 10787  9247
  277.50 2.152E-06 88615 77463 66729 56413 46654 37546 29294 25553 22100 18945 17458 16004 14540 12969 11069  9401
  278.50 1.030E-06 89485 79534 70184 61495 53485 46165 39466 36262 33068 29748 27951 26010 23816 21126 17330 13379
  279.50 3.210E-07 95016 90031 84984 79782 74361 68474 61776 57975 53645 48567 45607 42181 38131 33022 25723 18604
  280.50 4.250E-07 93624 87459 81459 75553 69647 63600 57059 53435 49412 44729 42024 38941 35294 30659 24047 17438
  281.50 1.863E-06 88459 77348 66774 56844 47644 39259 31782 28395 25217 22179 20666 19104 17424 15480 12882 10295
  282.50 2.951E-06 88648 77533 66655 56184 46188 36801 28231 24341 20779 17577 16106 14703 13328 11901 10237  8851
  283.50 2.716E-06 88439 77172 66237 55707 45803 36565 28255 24525 21127 18074 16668 15309 13954 12522 10806  9352
  284.50 1.626E-06 88007 76568 65929 56101 47183 39262 32386 29317 26458 23702 22312 20855 19256 17355 14748 12128
  285.50 6.398E-07 91200 83057 75586 68756 62535 56768 51157 48265 45155 41607 39559 37230 34448 30900 25602 19959
  286.50 2.618E-06 88121 76547 65432 54851 44996 35955 27976 24454 21268 18411 17078 15779 14461 13033 11276  9756
  287.50 3.647E-06 89389 78859 68385 58130 48094 38470 29367 25119 21149 17543 15903 14382 12959 11590 10173  9257
  288.50 3.142E-06 89465 79026 68778 58752 49045 39752 30974 26856 22966 19357 17667 16057 14504 12947 11235  9981
  289.50 3.809E-06 89971 79969 70018 60173 50459 40982 31819 27409 23164 19160 17280 15500 13825 12245 10675  9727
  291.00 4.966E-06 90354 80628 70882 61136 51430 41804 32360 27749 23258 18985 16969 15070 13311 11714 10274  9601
  293.00 4.421E-06 90296 80570 70844 61163 51572 42095 32843 28342 23976 19794 17817 15938 14171 12511 10898  9968
  295.00 4.260E-06 90141 80282 70446 60657 50986 41502 32324 27887 23638 19615 17725 15932 14239 12617 10967  9894
  297.00 4.423E-06 90097 80217 70337 60547 50893 41442 32286 27900 23672 19677 17798 16009 14316 12688 11022  9916
  299.00 4.547E-06 90257 80493 70750 61051 51463 42050 32901 28458 24192 20121 18197 16360 14616 12936 11205 10031
  301.00 4.725E-06 90159 80275 70413 60614 50921 41439 32254 27852 23619 19659 17797 16030 14349 12720 11005  9782
  303.00 4.936E-06 90478 80936 71333 61750 52188 42727 33468 28971 24595 20442 18485 16611 14830 13114 11335 10111
  305.00 5.299E-06 90527 80996 71429 61842 52293 42819 33535 29024 24627 20457 18494 16616 14833 13116 11336 10111
  307.00 5.408E-06 90717 81379 71986 62592 53199 43861 34615 30048 25592 21283 19231 17243 15346 13515 11629 10342
  309.00 5.184E-06 90529 81038 71547 62095 52720 43480 34452 30035 25752 21644 19676 17780 15943 14132 12199 10810
  311.00 5.703E-06 91040 81992 72874 63721 54515 45274 36034 31440 26881 22409 20252 18148 16135 14191 12209 10901
  313.00 5.604E-06 90667 81299 71877 62491 53123 43862 34761 30300 25964 21806 19789 17862 15994 14138 12136 10644
  315.00 5.279E-06 90813 81606 72400 63232 54101 45046 36124 31748 27429 23205 21159 19151 17189 15211 13042 11392
  317.00 5.804E-06 90972 81909 72812 63680 54566 45469 36423 31961 27550 23243 21158 19125 17147 15169 13024 11423
  319.00 5.345E-06 90964 81890 72797 63704 54631 45613 36688 32292 27951 23742 21703 19682 17710 15701 13448 11673
  321.00 6.044E-06 91016 81949 72816 63650 54451 45285 36185 31701 27316 23081 21046 19060 17124 15187 13026 11339
  323.00 5.349E-06 90933 81828 72705 63582 54515 45523 36698 32380 28173 24079 22079 20135 18185 16162 13803 11808
  325.00 6.951E-06 91598 83038 74349 65516 56524 47374 38095 33405 28744 24140 21882 19695 17551 15451 13207 11572
  327.00 8.111E-06 91727 83282 74664 65849 56836 47602 38170 33399 28615 23893 21588 19344 17162 15041 12834 11293
  329.00 7.898E-06 91745 83325 74753 66004 57090 47974 38668 33958 29235 24551 22259 20018 17827 15662 13358 11690
  331.00 7.767E-06 91477 82825 74057 65186 56186 47110 37955 33372 28827 24359 22171 20033 17948 15849 13544 11755
  333.00 7.891E-06 91649 83145 74515 65746 56837 47776 38588 33963 29337 24775 22545 20352 18198 16056 13699 11883
  335.00 7.842E-06 91597 83053 74369 65557 56605 47539 38370 33780 29227 24751 22571 20441 18337 16208 13836 11928
  337.00 6.051E-06 91158 82317 73492 64684 55925 47265 38754 34589 30491 26491 24525 22558 20575 18427 15821 13444
  339.00 7.242E-06 91328 82560 73695 64775 55827 46866 37973 33596 29329 25173 23170 21196 19221 17150 14706 12564
  341.00 7.396E-06 91536 82937 74216 65400 56476 47512 38561 34140 29800 25595 23553 21552 19551 17469 14995 12861
  343.00 7.949E-06 91735 83331 74777 66071 57227 48258 39225 34734 30306 26003 23915 21852 19814 17700 15222 13096
  345.00 8.104E-06 91955 83749 75370 66807 58070 49149 40091 35538 31009 26567 24395 22261 20151 17966 15462 13351
  347.00 8.583E-06 92066 83945 75626 67098 58348 49365 40196 35559 30945 26424 24211 22044 19911 17721 15204 13107
  349.00 9.300E-06 92280 84366 76237 67860 59215 50269 41011 36280 31516 26774 24452 22161 19903 17613 15043 12957
  351.00 9.759E-06 92489 84742 76760 68501 59934 50999 41685 36889 32022 27165 24767 22410 20084 17737 15135 13055
  353.00 9.160E-06 92478 84749 76801 68592 60087 51245 42041 37314 32511 27707 25328 22980 20644 18264 15568 13319
  355.00 1.060E-05 92660 85075 77217 69057 60547 51613 42217 37349 32396 27425 24962 22538 20151 17755 15094 12934
  357.00 8.562E-06 92233 84291 76150 67811 59250 50467 41474 36942 32422 27961 25777 23604 21432 19143 16375 13852
  359.00 8.159E-06 92389 84606 76664 68526 60191 51636 42848 38387 33913 29428 27209 24979 22711 20309 17380 14708
  361.00 9.387E-06 92713 85224 77511 69543 61276 52658 43667 39022 34292 29541 27165 24800 22425 19953 17077 14605
  363.00 9.531E-06 92729 85259 77568 69625 61400 52838 43909 39303 34624 29902 27542 25181 22799 20323 17406 14888
  364.00 9.952E-06 92695 85179 77442 69443 61143 52532 43549 38927 34244 29532 27180 24829 22468 19996 17112 14610
  365.00 1.087E-05 92824 85409 77746 69798 61536 52898 43827 39135 34342 29494 27065 24646 22217 19715 16845 14434
  367.00 1.125E-05 92889 85609 78044 70178 61973 53360 44267 39529 34684 29760 27289 24827 22347 19796 16880 14444
  369.00 1.056E-05 93068 85881 78447 70729 62670 54205 45256 40597 35833 30985 28551 26108 23646 21061 18049 15464
  371.00 1.125E-05 93333 86400 79156 71547 63484 54916 45751 40942 36000 30978 28462 25956 23449 20853 17876 15351
  373.00 8.978E-06 92849 85487 77868 69993 61862 53464 44865 40521 36166 31845 29695 27545 25329 22934 19926 17042
  375.00 1.017E-05 92675 85152 77375 69351 61062 52527 43766 39331 34877 30452 28260 26067 23854 21485 18594 15910
  377.00 1.217E-05 92933 85620 77995 70041 61726 53024 43919 39219 34462 29680 27305 24947 22580 20131 17256 14725
  379.00 1.291E-05 92641 84973 77111 68954 60519 51782 42719 38079 33393 28691 26367 24059 21751 19365 16584 14129
  381.00 1.331E-05 92261 84298 76183 67806 59204 50376 41352 36784 32224 27716 25500 23313 21142 18881 16191 13757
  383.00 8.349E-06 92107 84166 76189 68236 60319 52521 44904 41191 37549 33932 32100 30195 28147 25764 22470 18972
  385.00 1.259E-05 91660 83241 74647 65965 57212 48435 39714 35409 31199 27109 25115 23153 21168 19031 16346 13701
  387.00 1.227E-05 91443 82804 74108 65363 56626 47954 39438 35281 31222 27302 25387 23480 21540 19430 16716 14010
  389.00 1.235E-05 92713 85182 77344 69279 60964 52421 43684 39263 34842 30445 28259 26073 23846 21457 18518 15749
  391.00 1.420E-05 92183 84296 76197 68028 59683 51190 42528 38141 33739 29345 27162 24986 22789 20465 17669 15106
  393.00 7.926E-06 92556 85112 77694 70288 62932 55614 48322 44676 41030 37282 35339 33283 31012 28287 24464 20313
  395.00 1.349E-05 92291 84433 76427 68340 60119 51772 43328 39081 34855 30667 28592 26494 24337 21979 19007 16116
  397.00 9.472E-06 92937 85737 78421 70988 63450 55807 48079 44193 40277 36307 34259 32137 29825 27154 23480 19626
  399.00 1.710E-05 92690 85205 77485 69532 61287 52807 43953 39380 34713 29988 27626 25263 22889 20427 17550 15029
  401.00 1.805E-05 92687 85208 77507 69584 61440 52964 44122 39535 34842 30055 27651 25241 22825 20332 17463 15014
  403.00 1.838E-05 92709 85201 77476 69532 61317 52813 43945 39353 34663 29897 27508 25120 22720 20250 17410 14984
  405.00 1.787E-05 92725 85283 77616 69726 61612 53212 44443 39910 35277 30576 28209 25842 23458 20974 18081 15540
  407.00 1.757E-05 92715 85259 77632 69721 61639 53221 44496 40000 35418 30780 28452 26124 23773 21309 18406 15828
  409.00 1.933E-05 93275 86239 78996 71392 63425 55044 46105 41417 36570 31583 29048 26503 23942 21293 18282 15737
  411.00 1.843E-05 93869 87412 80629 73413 65708 57461 48546 43771 38790 33608 30966 28291 25583 22778 19561 16831
  413.00 1.961E-05 93014 85773 78327 70627 62570 54207 45375 40765 36022 31173 28725 26272 23799 21239 18276 15711
  415.00 1.982E-05 92987 85721 78254 70484 62462 54087 45252 40661 35943 31135 28708 26276 23835 21297 18360 15792
  417.00 2.033E-05 93015 85785 78357 70684 62666 54304 45524 40925 36193 31348 28898 26439 23965 21397 18426 15829
  419.00 1.952E-05 92982 85707 78227 70492 62500 54252 45548 41045 36429 31726 29360 26977 24565 22039 19063 16404
  421.00 1.964E-05 92974 85794 78360 70723 62831 54633 46003 41517 36909 32189 29796 27388 24944 22378 19358 16675
  423.00 1.883E-05 93096 85927 78651 71110 63303 55231 46766 42353 37817 33160 30797 28407 25969 23383 20303 17531
  425.00 1.917E-05 92906 85655 78195 70527 62702 54564 46109 41753 37303 32775 30485 28169 25806 23292 20271 17522
  427.00 1.830E-05 92842 85464 77978 70328 62514 54508 46257 42038 37754 33415 31224 29011 26727 24268 21246 18404
  429.00 1.712E-05 92815 85456 78037 70502 62792 54912 46846 42728 38546 34293 32138 29947 27675 25187 22056 19036
  431.00 1.427E-05 92782 85564 78276 70988 63693 56321 48851 45046 41170 37197 35151 33020 30750 28185 24786 21338
  433.00 2.012E-05 93539 86779 79771 72465 64811 56759 48201 43733 39130 34404 32008 29578 27102 24468 21307 18439
  435.00 1.934E-05 93795 87280 80455 73268 65667 57653 49121 44664 40088 35424 33066 30672 28216 25579 22363 19369
  437.00 2.148E-05 93156 86127 78864 71369 63594 55447 46974 42584 38082 33492 31169 28827 26434 23897 20852 18073
  439.00 2.029E-05 93051 85904 78610 71119 63381 55397 47117 42859 38521 34120 31893 29635 27314 24810 21735 18837
  441.00 2.174E-05 93284 86385 79209 71803 64075 55980 47470 43063 38533 33919 31587 29236 26835 24282 21201 18381
  443.00 2.325E-05 93591 86925 80000 72774 65161 57161 48559 44043 39329 34465 31987 29480 26925 24232 21054 18237
  445.00 2.307E-05 93585 86953 80061 72865 65323 57347 48851 44343 39666 34820 32345 29831 27265 24551 21339 18474
  447.00 2.401E-05 93711 87172 80383 73261 65806 57851 49313 44773 40029 35073 32532 29950 27309 24536 21283 18434
  449.00 2.438E-05 93765 87285 80558 73503 66079 58162 49672 45119 40369 35410 32859 30267 27617 24828 21559 18700
  451.00 2.607E-05 93863 87495 80821 73840 66437 58535 49981 45378 40545 35462 32842 30173 27453 24607 21320 18512
  453.00 2.453E-05 93844 87403 80758 73746 66408 58581 50143 45618 40889 35915 33359 30750 28080 25255 21932 19013
  455.00 2.533E-05 93881 87564 80932 73983 66640 58824 50336 45796 41019 36009 33427 30794 28093 25251 21915 19001
  457.00 2.664E-05 93956 87650 81044 74137 66817 58971 50450 45871 41066 35987 33371 30706 27980 25116 21794 18926
  459.00 2.579E-05 93951 87631 81039 74137 66848 59093 50679 46142 41411 36425 33850 31225 28530 25680 22323 19372
  461.00 2.635E-05 94004 87742 81214 74383 67135 59355 50930 46414 41632 36619 34027 31381 28668 25806 22452 19529
  463.00 2.638E-05 94049 87794 81312 74488 67248 59515 51099 46588 41812 36831 34249 31615 28908 26050 22688 19735
  465.00 2.668E-05 94040 87856 81409 74625 67429 59708 51274 46777 42016 36990 34400 31754 29037 26166 22789 19828
  467.00 2.743E-05 94094 87896 81444 74663 67481 59752 51331 46810 42034 37003 34400 31750 29030 26157 22789 19840
  469.00 2.733E-05 94109 87999 81559 74790 67618 59934 51555 47055 42298 37285 34694 32053 29338 26465 23085 20110
  471.00 2.686E-05 94192 88124 81757 75056 67945 60313 52010 47543 42815 37863 35279 32647 29940 27059 23641 20603
  473.00 2.779E-05 94171 88089 81720 74991 67866 60202 51853 47355 42605 37603 35023 32379 29665 26787 23390 20403
  475.00 2.817E-05 94214 88179 81860 75186 68087 60454 52148 47639 42883 37877 35282 32630 29901 27007 23600 20611
  477.00 2.835E-05 94250 88219 81940 75309 68219 60635 52310 47831 43104 38095 35485 32825 30088 27185 23760 20748
  479.00 2.838E-05 94292 88302 82030 75405 68358 60782 52502 47992 43270 38266 35694 33034 30307 27410 23985 20958
  481.00 2.856E-05 94258 88270 82003 75385 68347 60749 52451 48004 43277 38305 35749 33130 30427 27553 24142 21110
  483.00 2.877E-05 94369 88460 82273 75704 68683 61140 52833 48349 43622 38617 36044 33389 30664 27769 24334 21290
  485.00 2.747E-05 94722 89152 83218 76884 70040 62614 54350 49873 45104 40080 37459 34794 32024 29057 25501 22301
  487.00 2.443E-05 95211 90094 84650 78715 72247 65125 57184 52804 48138 43185 40585 37888 35055 31965 28170 24662
  489.00 2.821E-05 94470 88657 82524 76072 69160 61751 53598 49167 44523 39596 37044 34435 31726 28820 25335 22198
  491.00 2.856E-05 94398 88550 82423 75980 69083 61660 53536 49160 44503 39636 37080 34471 31772 28876 25396 22251
  493.00 2.820E-05 94468 88652 82553 76135 69291 61879 53794 49433 44823 39929 37411 34809 32113 29213 25716 22550
  495.00 2.904E-05 94490 88740 82714 76309 69525 62156 54063 49656 45007 40083 37534 34883 32152 29225 25720 22572
  497.00 2.977E-05 94491 88713 82667 76285 69432 62042 53947 49547 44877 39940 37387 34767 32036 29117 25623 22482
  499.00 2.841E-05 94509 88772 82788 76417 69659 62337 54347 50018 45442 40584 38085 35480 32777 29859 26322 23087
  501.00 2.782E-05 94536 88821 82818 76492 69770 62509 54529 50252 45723 40906 38426 35848 33167 30262 26711 23433
  503.00 2.930E-05 94505 88771 82765 76416 69625 62321 54334 50000 45461 40614 38089 35529 32829 29928 26410 23191
  505.00 2.931E-05 94575 88878 82941 76629 69908 62641 54657 50324 45718 40873 38349 35756 33037 30119 26588 23361
  507.00 3.034E-05 94628 88958 83026 76763 70040 62755 54746 50363 45748 40870 38299 35695 32960 30033 26503 23303
  509.00 2.978E-05 94594 88952 83009 76729 70047 62760 54802 50470 45903 41068 38549 35930 33251 30343 26810 23566
  511.00 3.023E-05 94641 89018 83096 76844 70129 62885 54879 50546 45948 41085 38571 35958 33245 30341 26811 23579
  513.00 3.003E-05 94639 89011 83117 76856 70196 62970 55012 50716 46154 41325 38795 36230 33533 30633 27090 23820
  515.00 2.935E-05 94685 89063 83203 76968 70324 63169 55264 51005 46508 41738 39250 36695 34020 31124 27574 24269
  517.00 2.753E-05 94660 89030 83182 77007 70396 63349 55648 51507 47185 42644 40283 37850 35282 32474 28965 25623
  519.00 2.797E-05 94673 89131 83304 77154 70611 63604 55953 51841 47515 42975 40615 38184 35610 32789 29260 25899
  521.00 2.970E-05 94781 89293 83535 77407 70875 63805 55993 51717 47239 42458 39933 37374 34680 31754 28158 24825
  523.00 3.035E-05 94761 89292 83526 77430 70873 63789 55980 51730 47216 42471 39967 37397 34728 31809 28227 24903
  525.00 3.138E-05 94774 89293 83525 77438 70905 63799 55959 51721 47196 42384 39866 37285 34576 31635 28037 24713
  527.00 2.906E-05 94769 89298 83586 77529 71060 64074 56401 52271 47901 43290 40881 38403 35788 32897 29305 25902
  529.00 3.150E-05 94857 89429 83746 77714 71206 64159 56381 52159 47651 42857 40349 37778 35079 32127 28540 25210
  531.00 3.229E-05 94859 89501 83865 77826 71384 64354 56550 52276 47755 42924 40384 37783 35057 32084 28483 25172
  533.00 3.048E-05 94882 89501 83858 77854 71424 64469 56791 52625 48196 43537 41076 38550 35892 33005 29400 26014
  535.00 3.204E-05 94913 89576 83958 77996 71567 64576 56866 52653 48159 43383 40886 38296 35581 32647 29029 25693
  537.00 3.190E-05 94953 89655 84075 78150 71755 64828 57116 52915 48433 43668 41191 38621 35893 32947 29339 25984
  539.00 3.196E-05 94962 89706 84105 78191 71809 64862 57165 52972 48529 43773 41302 38736 36045 33104 29474 26108
  541.00 3.144E-05 94975 89726 84160 78276 71915 65013 57379 53244 48823 44116 41667 39122 36482 33556 29920 26530
  543.00 3.220E-05 94969 89689 84130 78199 71832 64907 57236 53075 48634 43913 41429 38882 36211 33292 29665 26292
  545.00 3.259E-05 94998 89782 84290 78429 72108 65235 57594 53391 48941 44185 41700 39122 36422 33477 29853 26502
  547.00 3.259E-05 95060 89844 84351 78521 72231 65357 57748 53575 49126 44431 41945 39368 36698 33753 30101 26711
  549.00 3.293E-05 95050 89827 84330 78469 72183 65290 57668 53507 49074 44367 41907 39356 36684 33738 30131 26748
  551.00 3.315E-05 95053 89864 84344 78492 72187 65309 57677 53514 49110 44374 41931 39367 36682 33756 30136 26754
  553.00 3.334E-05 95081 89922 84463 78644 72376 65537 57948 53809 49370 44691 42232 39652 36983 34043 30414 27013
  555.00 3.375E-05 95081 89926 84504 78696 72444 65600 58015 53896 49452 44741 42281 39733 37037 34104 30459 27087
  557.00 3.308E-05 95133 90024 84613 78869 72672 65901 58374 54262 49879 45224 42775 40236 37545 34613 30955 27539
  559.00 3.301E-05 95123 90033 84641 78885 72675 65919 58437 54347 49985 45350 42926 40412 37746 34808 31172 27740
  561.00 3.351E-05 95195 90122 84781 79111 72933 66219 58729 54611 50224 45539 43092 40525 37839 34885 31215 27780
  563.00 3.409E-05 95160 90085 84717 78997 72807 66060 58522 54415 50044 45351 42916 40364 37694 34761 31123 27712
  565.00 3.434E-05 95166 90099 84741 79033 72860 66104 58591 54485 50116 45428 42982 40448 37769 34857 31217 27798
  567.00 3.394E-05 95168 90130 84797 79110 72982 66264 58810 54714 50383 45757 43312 40807 38126 35209 31556 28111
  569.00 3.442E-05 95177 90180 84863 79169 73039 66357 58890 54823 50465 45816 43405 40848 38205 35270 31639 28199
  571.00 3.404E-05 95182 90188 84900 79230 73120 66451 59048 54994 50676 46063 43655 41128 38484 35546 31874 28417
  573.00 3.533E-05 95188 90235 84999 79366 73281 66601 59128 55024 50665 45967 43504 40928 38239 35296 31616 28220
  575.00 3.495E-05 95222 90272 85007 79399 73305 66638 59227 55165 50815 46180 43748 41202 38541 35622 31960 28526
  577.00 3.521E-05 95257 90315 85089 79494 73445 66799 59387 55297 50951 46322 43880 41352 38654 35728 32065 28628
  579.00 3.506E-05 95265 90331 85083 79464 73417 66771 59355 55305 50998 46406 43982 41472 38819 35881 32259 28808
  581.00 3.543E-05 95258 90347 85154 79594 73553 66949 59554 55518 51200 46571 44115 41603 38922 35986 32345 28902
  583.00 3.577E-05 95331 90439 85295 79732 73749 67151 59771 55717 51356 46715 44283 41739 39055 36092 32429 28991
  585.00 3.545E-05 95289 90409 85247 79718 73738 67193 59859 55825 51509 46911 44485 41975 39295 36361 32694 29224
  587.00 3.560E-05 95337 90506 85365 79860 73905 67360 60056 56011 51713 47107 44691 42163 39494 36545 32893 29410
  589.00 3.411E-05 95368 90501 85342 79830 73908 67400 60188 56259 52067 47611 45265 42832 40252 37350 33744 30255
  591.00 3.571E-05 95351 90535 85438 79950 74013 67488 60207 56203 51918 47326 44917 42397 39765 36824 33156 29684
  593.00 3.583E-05 95367 90567 85459 80017 74100 67597 60313 56322 52051 47474 45074 42562 39911 36980 33296 29835
  595.00 3.605E-05 95395 90596 85520 80055 74147 67656 60388 56394 52122 47545 45160 42635 39972 37060 33398 29903
  597.00 3.612E-05 95432 90670 85631 80205 74336 67857 60631 56645 52353 47785 45377 42857 40199 37265 33610 30122
  599.00 3.615E-05 95380 90650 85588 80194 74302 67856 60636 56653 52420 47856 45450 42960 40332 37400 33721 30235
  601.00 3.595E-05 95438 90709 85675 80250 74409 67983 60779 56829 52601 48067 45675 43199 40556 37636 33964 30459
  603.00 3.607E-05 95481 90768 85750 80399 74577 68173 60993 57028 52814 48295 45911 43416 40782 37843 34156 30663
  605.00 3.668E-05 95474 90758 85769 80425 74591 68184 60987 57007 52781 48228 45829 43321 40676 37732 34051 30589
  607.00 3.658E-05 95489 90787 85812 80481 74658 68261 61099 57162 52925 48414 46009 43521 40869 37944 34281 30782
  609.00 3.646E-05 95529 90812 85820 80472 74657 68267 61108 57186 52962 48464 46105 43637 41004 38097 34449 30938
  611.00 3.638E-05 95520 90847 85871 80539 74766 68389 61270 57367 53189 48708 46344 43870 41259 38345 34662 31143
  613.00 3.552E-05 95580 90935 85980 80715 74972 68666 61627 57742 53604 49184 46847 44398 41779 38880 35191 31644
  615.00 3.619E-05 95579 90937 85991 80713 74965 68665 61592 57723 53578 49130 46781 44349 41752 38851 35148 31611
  617.00 3.561E-05 95563 90930 86015 80736 75007 68745 61752 57905 53833 49452 47122 44707 42123 39259 35580 32013
  619.00 3.673E-05 95562 90961 86060 80806 75088 68799 61721 57827 53689 49224 46855 44405 41791 38878 35203 31663
  621.00 3.687E-05 95552 90968 86086 80852 75156 68864 61812 57933 53784 49336 46976 44508 41904 38975 35313 31787
  623.00 3.650E-05 95589 91014 86110 80877 75178 68932 61918 58055 53945 49507 47178 44740 42164 39260 35589 32027
  625.00 3.601E-05 95612 91058 86171 80978 75312 69092 62122 58317 54235 49875 47542 45126 42572 39656 35990 32380
  627.00 3.710E-05 95606 91051 86199 80970 75283 69057 62022 58167 54043 49623 47278 44852 42264 39353 35687 32156
  629.00 3.722E-05 95594 91053 86217 81032 75390 69156 62144 58302 54164 49758 47421 44976 42370 39468 35787 32241
  631.00 3.665E-05 95689 91160 86357 81201 75580 69386 62456 58636 54570 50177 47858 45430 42838 39945 36262 32688
  633.00 3.699E-05 95675 91187 86375 81238 75615 69424 62476 58665 54582 50176 47851 45445 42849 39957 36280 32712
  635.00 3.730E-05 95737 91233 86434 81287 75684 69491 62547 58713 54611 50214 47909 45469 42895 40000 36327 32761
  637.00 3.737E-05 95719 91223 86433 81295 75702 69521 62590 58764 54696 50308 47980 45571 43002 40112 36446 32887
  639.00 3.743E-05 95725 91264 86508 81379 75822 69677 62757 58937 54876 50494 48170 45739 43147 40262 36602 33048
  641.00 3.688E-05 95743 91323 86578 81508 75976 69848 63015 59246 55179 50841 48536 46150 43574 40672 36985 33406
  643.00 3.726E-05 95760 91358 86634 81562 76033 69914 63043 59259 55207 50832 48524 46108 43532 40633 36957 33387
  645.00 3.724E-05 95784 91407 86708 81633 76128 70032 63185 59425 55397 51047 48738 46348 43770 40897 37218 33647
  647.00 3.721E-05 95834 91454 86778 81725 76216 70142 63316 59554 55550 51223 48912 46520 43940 41064 37382 33808
  649.00 3.692E-05 95883 91495 86836 81798 76327 70287 63489 59751 55742 51436 49133 46750 44177 41306 37595 33992
  651.00 3.751E-05 95921 91602 86990 81978 76540 70488 63663 59904 55878 51533 49214 46814 44228 41322 37643 34044
  653.00 3.749E-05 96026 91811 87250 82315 76927 70899 64097 60336 56282 51934 49613 47186 44599 41691 37983 34383
  655.00 3.535E-05 96464 92673 88515 83989 78925 73211 66648 62970 58982 54653 52334 49873 47242 44215 40311 36492
  657.00 3.007E-05 97107 93947 90489 86664 82341 77419 71733 68507 64948 60991 58796 56435 53808 50682 46525 42268
  659.00 3.690E-05 96179 92087 87669 82873 77588 71707 64986 61274 57263 52927 50623 48184 45583 42656 38916 35230
  661.00 3.797E-05 95997 91757 87200 82275 76876 70898 64130 60390 56360 52041 49750 47353 44772 41875 38188 34606
  663.00 3.810E-05 95958 91680 87113 82152 76745 70761 64016 60289 56273 51995 49711 47323 44777 41890 38215 34646
  665.00 3.818E-05 95966 91671 87087 82137 76742 70770 64039 60320 56338 52043 49764 47381 44840 41985 38318 34730
  667.00 3.799E-05 95946 91682 87128 82206 76836 70887 64175 60463 56489 52224 49961 47591 45038 42169 38510 34930
  669.00 3.849E-05 95921 91660 87114 82177 76825 70850 64147 60431 56456 52169 49909 47519 44973 42115 38452 34892
  671.00 3.822E-05 95918 91627 87075 82156 76766 70827 64155 60466 56515 52276 50052 47671 45160 42308 38671 35086
  673.00 3.853E-05 95899 91643 87101 82196 76849 70932 64262 60576 56605 52349 50091 47729 45212 42357 38697 35141
  675.00 3.846E-05 95918 91680 87129 82241 76911 70983 64327 60660 56708 52470 50234 47868 45346 42486 38846 35283
  677.00 3.855E-05 95901 91673 87160 82257 76939 71051 64384 60726 56783 52555 50324 47964 45447 42594 38962 35383
  679.00 3.858E-05 95931 91706 87195 82322 77009 71125 64489 60809 56895 52670 50441 48082 45568 42742 39088 35511
  681.00 3.855E-05 95927 91699 87211 82361 77069 71180 64565 60934 57017 52815 50584 48223 45707 42879 39248 35668
  683.00 3.873E-05 95946 91764 87271 82443 77150 71288 64679 61038 57113 52905 50658 48309 45804 42964 39324 35760
  685.00 3.840E-05 95964 91771 87292 82448 77188 71354 64766 61146 57266 53099 50885 48542 46042 43229 39609 36016
  687.00 3.869E-05 95968 91781 87309 82502 77229 71414 64823 61204 57302 53115 50892 48566 46058 43241 39597 36004
  689.00 3.886E-05 95986 91843 87391 82578 77329 71513 64925 61297 57411 53217 50978 48662 46140 43309 39681 36130
  691.00 3.880E-05 95979 91830 87371 82577 77345 71521 64974 61366 57500 53325 51108 48763 46263 43454 39820 36237
  693.00 3.889E-05 95989 91823 87400 82618 77372 71587 65030 61430 57547 53381 51170 48830 46336 43533 39882 36308
  695.00 3.887E-05 95987 91870 87445 82660 77438 71649 65114 61513 57628 53486 51273 48932 46437 43633 39979 36403
  697.00 3.898E-05 96024 91893 87481 82735 77527 71729 65213 61621 57748 53592 51385 49051 46562 43740 40123 36532
  699.00 3.899E-05 96025 91921 87510 82765 77558 71788 65273 61682 57835 53680 51475 49141 46653 43857 40215 36625
  701.00 3.862E-05 96064 91947 87545 82807 77602 71880 65407 61833 58027 53910 51735 49456 46970 44174 40549 36950
  703.00 3.894E-05 96071 91988 87596 82871 77684 71957 65485 61916 58064 53929 51746 49435 46970 44171 40550 36954
  705.00 3.909E-05 96035 91967 87593 82886 77718 71988 65541 61960 58122 54004 51804 49501 47020 44206 40599 37017
  707.00 3.902E-05 96079 92004 87647 82932 77781 72066 65607 62045 58227 54126 51922 49641 47155 44362 40748 37160
  709.00 3.901E-05 96104 92028 87670 82979 77826 72135 65701 62164 58344 54243 52064 49756 47296 44501 40887 37298
  711.00 3.915E-05 96118 92082 87765 83091 77982 72286 65849 62299 58493 54355 52184 49885 47407 44598 40971 37369
  713.00 3.887E-05 96141 92128 87806 83149 78029 72369 65989 62439 58657 54567 52380 50090 47646 44842 41214 37613
  715.00 3.885E-05 96139 92124 87799 83166 78070 72407 66049 62523 58739 54672 52510 50219 47773 44994 41364 37735
  717.00 3.899E-05 96179 92177 87869 83226 78148 72506 66120 62606 58836 54783 52603 50321 47884 45088 41472 37882
  719.00 3.855E-05 96161 92140 87834 83191 78132 72503 66174 62698 58962 54942 52789 50558 48119 45344 41738 38106
  721.00 3.890E-05 96170 92185 87918 83290 78226 72622 66298 62802 59049 54987 52828 50566 48123 45321 41722 38098
  723.00 3.916E-05 96170 92186 87921 83299 78243 72625 66292 62794 59040 54980 52835 50562 48110 45327 41726 38126
  725.00 3.929E-05 96182 92212 87961 83355 78315 72716 66378 62866 59099 55052 52889 50624 48180 45381 41766 38178
  727.00 3.931E-05 96184 92216 87967 83363 78326 72730 66421 62910 59171 55126 52964 50700 48257 45459 41847 38260
  729.00 3.885E-05 96216 92252 88005 83423 78404 72844 66564 63115 59408 55393 53282 51042 48597 45843 42239 38610
  731.00 3.921E-05 96200 92247 88013 83448 78424 72864 66590 63096 59373 55343 53201 50956 48508 45754 42132 38536
  733.00 3.921E-05 96225 92298 88064 83525 78526 72966 66718 63249 59526 55496 53354 51109 48661 45907 42285 38689
  735.00 3.942E-05 96220 92288 88077 83511 78513 72958 66667 63191 59462 55454 53323 51065 48630 45865 42263 38661
  737.00 3.952E-05 96255 92333 88133 83578 78593 73052 66802 63310 59590 55567 53441 51164 48735 45977 42384 38790
  739.00 3.906E-05 96262 92345 88172 83641 78674 73169 66948 63518 59831 55863 53738 51510 49104 46365 42755 39171
  741.00 3.841E-05 96303 92424 88284 83780 78886 73418 67300 63916 60271 56366 54257 52044 49649 46915 43296 39651
  743.00 3.917E-05 96273 92418 88256 83738 78810 73321 67118 63697 60020 56038 53944 51698 49298 46541 42941 39341
  745.00 3.931E-05 96260 92394 88247 83745 78809 73340 67158 63724 60036 56067 53956 51717 49300 46553 42966 39379
  747.00 3.955E-05 96308 92440 88293 83793 78862 73375 67181 63742 60051 56056 53932 51681 49279 46498 42908 39317
  749.00 3.935E-05 96341 92503 88361 83888 78983 73545 67370 63939 60280 56315 54180 51944 49530 46785 43202 39593
  751.00 3.936E-05 96316 92480 88364 83918 79040 73577 67429 64024 60340 56377 54268 52033 49644 46875 43293 39710
  753.00 3.955E-05 96308 92465 88344 83894 79014 73552 67408 63995 60329 56359 54260 52010 49608 46852 43287 39697
  755.00 3.971E-05 96298 92470 88366 83908 79023 73583 67439 64014 60337 56384 54268 52052 49635 46890 43314 39738
  757.00 3.957E-05 96336 92494 88400 83952 79100 73667 67526 64140 60475 56533 54435 52211 49810 47056 43493 39904
  759.00 3.952E-05 96382 92561 88487 84059 79200 73811 67687 64297 60653 56705 54605 52379 49975 47217 43649 40056
  761.00 3.955E-05 96384 92566 88496 84071 79241 73831 67737 64349 60708 56764 54665 52465 50063 47332 43742 40152
  763.00 3.966E-05 96369 92562 88502 84090 79249 73853 67751 64372 60741 56808 54715 52496 50101 47352 43772 40192
  765.00 3.971E-05 96374 92622 88542 84160 79325 73961 67867 64493 60841 56913 54822 52606 50214 47469 43893 40317
  767.00 3.907E-05 96417 92680 88636 84259 79473 74149 68109 64781 61172 57307 55234 53033 50653 47914 44356 40747
  769.00 3.974E-05 96376 92627 88601 84222 79416 74056 67992 64620 60996 57071 54982 52768 50377 47660 44087 40513
  771.00 3.942E-05 96372 92618 88610 84247 79452 74125 68087 64739 61136 57255 55175 52968 50583 47869 44292 40690
  773.00 3.968E-05 96371 92616 88584 84224 79410 74093 68044 64693 61089 57182 55116 52923 50529 47807 44254 40675
  775.00 3.941E-05 96371 92641 88632 84293 79523 74220 68206 64882 61304 57447 55367 53184 50825 48110 44532 40954
  777.00 3.975E-05 96428 92755 88780 84453 79723 74415 68403 65057 61459 57560 55472 53283 50893 48151 44579 41006
  779.00 3.984E-05 96386 92671 88680 84337 79568 74272 68248 64910 61320 57430 55346 53163 50778 48042 44478 40914
  781.00 3.987E-05 96438 92751 88763 84424 79659 74367 68347 65011 61425 57537 55480 53273 50890 48182 44620 41058
  783.00 3.960E-05 96439 92753 88788 84495 79773 74495 68535 65227 61641 57778 55707 53535 51162 48460 44899 41313
  785.00 3.963E-05 96467 92808 88847 84557 79839 74565 68610 65279 61721 57860 55791 53621 51249 48524 44991 41408
  787.00 3.999E-05 96424 92723 88772 84471 79745 74469 68492 65166 61565 57689 55639 53438 51063 48362 44811 41235
  789.00 3.998E-05 96448 92771 88819 84517 79790 74537 68534 65208 61631 57754 55703 53502 51126 48424 44872 41296
  791.00 3.982E-05 96484 92793 88850 84556 79809 74561 68584 65269 61728 57860 55801 53641 51256 48569 45003 41411
  793.00 3.940E-05 96523 92868 88934 84695 80000 74797 68883 65609 62056 58249 56193 54036 51675 48985 45431 41827
  795.00 3.949E-05 96505 92859 88934 84680 79995 74778 68853 65586 62041 58217 56166 54014 51659 48974 45404 41808
  797.00 3.998E-05 96523 92871 88944 84667 79990 74737 68809 65508 61956 58104 56053 53852 51501 48799 45248 41696
  799.00 4.003E-05 96503 92855 88958 84686 80015 74794 68848 65551 62003 58156 56083 53910 51561 48838 45291 41744
  801.00 3.996E-05 96471 92868 88964 84735 80105 74900 68994 65741 62187 58358 56306 54154 51777 49099 45546 41992
  803.00 4.010E-05 96484 92893 89002 84763 80125 74938 69027 65736 62219 58379 56309 54140 51796 49077 45561 42020
  805.00 4.000E-05 96475 92875 89000 84775 80150 74975 69100 65825 62300 58475 56450 54275 51925 49225 45700 42150
  807.00 4.015E-05 96538 92927 89066 84857 80224 75044 69141 65878 62341 58506 56463 54271 51930 49215 45704 42142
  809.00 4.003E-05 96553 92980 89108 84911 80265 75119 69248 65976 62453 58631 56608 54434 52086 49388 45866 42318
  811.00 4.015E-05 96563 92976 89116 84932 80299 75143 69265 66002 62491 58655 56613 54446 52080 49390 45853 42316
  813.00 4.017E-05 96515 92955 89096 84914 80309 75156 69281 66019 62509 58701 56659 54493 52128 49440 45905 42370
  815.00 4.017E-05 96540 92980 89146 84964 80358 75230 69380 66119 62609 58800 56759 54593 52228 49539 46029 42494
  817.00 4.017E-05 96490 92930 89096 84939 80358 75230 69380 66144 62634 58825 56784 54643 52303 49614 46079 42544
  819.00 3.979E-05 96607 93064 89244 85122 80548 75446 69666 66449 62956 59186 57175 55014 52702 50013 46494 42950
  821.00 4.003E-05 96677 93130 89308 85161 80590 75468 69648 66425 62928 59131 57107 54959 52611 49938 46415 42893
  823.00 3.987E-05 96689 93153 89365 85227 80662 75571 69802 66566 63105 59318 57311 55154 52822 50163 46627 43090
  825.00 4.009E-05 96707 93165 89374 85233 80669 75555 69768 66525 63058 59267 57246 55076 52756 50062 46570 43028
  827.00 4.018E-05 96690 93181 89373 85241 80687 75585 69786 66575 63066 59283 57267 55102 52763 50100 46590 43056
  829.00 4.017E-05 96689 93179 89395 85263 80732 75629 69853 66617 63132 59348 57331 55190 52850 50187 46677 43142
  831.00 4.010E-05 96708 93192 89401 85287 80773 75686 69900 66708 63217 59451 57431 55312 52968 50299 46783 43267
  833.00 3.974E-05 96729 93256 89507 85405 80901 75868 70131 66935 63488 59738 57725 55611 53271 50604 47081 43533
  835.00 4.010E-05 96733 93242 89476 85387 80848 75810 70050 66833 63392 59626 57606 55461 53142 50474 46958 43441
  837.00 4.012E-05 96735 93245 89482 85394 80882 75847 70090 66899 63435 59671 57652 55533 53190 50523 47034 43495
  839.00 3.975E-05 96780 93308 89585 85509 81031 76025 70314 67120 63698 59950 57937 55799 53484 50818 47296 43748
  841.00 4.010E-05 96758 93292 89551 85486 80998 75985 70249 67057 63616 59850 57830 55711 53392 50723 47207 43691
  843.00 4.001E-05 96776 93302 89578 85529 81055 76031 70307 67133 63684 59935 57936 55811 53487 50837 47338 43789
  845.00 4.003E-05 96777 93355 89633 85611 81139 76143 70422 67250 63802 60055 58056 55933 53610 50937 47439 43917
  847.00 3.980E-05 96784 93367 89673 85628 81206 76231 70553 67387 63970 60251 58266 56131 53819 51156 47663 44121
  849.00 3.987E-05 96790 93378 89666 85628 81189 76198 70529 67369 63958 60246 58239 56132 53825 51191 47705 44169
  851.00 3.878E-05 96828 93450 89789 85817 81434 76534 70964 67870 64518 60856 58896 56808 54513 51882 48375 44791
  853.00 3.991E-05 96793 93385 89677 85643 81208 76222 70559 67402 63994 60311 58331 56227 53921 51290 47808 44275
  855.00 3.672E-05 96923 93627 90060 86220 81999 77288 71977 69036 65877 62418 60566 58551 56345 53758 50245 46541
  857.00 4.017E-05 96789 93378 89694 85661 81205 76226 70550 67389 63978 60269 58277 56161 53846 51207 47722 44237
  859.00 3.990E-05 96842 93484 89825 85865 81454 76516 70877 67719 64311 60627 58622 56516 54211 51554 48070 44561
  861.00 3.982E-05 96861 93496 89854 85912 81517 76595 70969 67830 64440 60748 58764 56655 54345 51708 48217 44701
  863.00 4.021E-05 96692 93285 89605 85601 81174 76225 70579 67421 64039 60333 58344 56255 53967 51331 47849 44367
  865.00 4.001E-05 96851 93452 89803 85829 81430 76481 70857 67708 64334 60635 58660 56561 54261 51637 48163 44664
  867.00 3.705E-05 96977 93738 90256 86478 82294 77598 72308 69339 66154 62672 60810 58785 56572 53981 50472 46802
  869.00 3.971E-05 96827 93453 89826 85847 81491 76580 70990 67867 64493 60841 58877 56762 54495 51851 48401 44875
  871.00 4.016E-05 96713 93327 89666 85682 81275 76370 70767 67629 64268 60583 58616 56524 54233 51619 48182 44671
  873.00 4.011E-05 96784 93418 89803 85839 81451 76540 70930 67814 64448 60758 58788 56694 54400 51783 48317 44827
  875.00 3.930E-05 97023 93817 90331 86514 82265 77455 71959 68855 65522 61858 59873 57761 55471 52824 49313 45751
  877.00 4.007E-05 96856 93536 89918 86000 81632 76741 71150 68031 64637 60968 58997 56900 54604 51984 48515 45021
  879.00 4.013E-05 96761 93372 89758 85796 81410 76526 70969 67854 64490 60827 58884 56790 54523 51906 48467 44979
  881.00 3.978E-05 96782 93439 89819 85897 81549 76697 71166 68074 64756 61111 59150 57089 54827 52212 48768 45274
  883.00 3.987E-05 96739 93404 89817 85879 81565 76699 71181 68096 64735 61099 59142 57060 54803 52170 48733 45222
  885.00 3.987E-05 96940 93654 90093 86205 81891 77025 71482 68397 65036 61374 59393 57311 55029 52395 48934 45448
  887.00 3.900E-05 97103 94000 90590 86846 82692 77974 72538 69487 66179 62538 60564 58487 56179 53538 50026 46462
  889.00 4.013E-05 96810 93496 89908 85996 81685 76825 71268 68178 64839 61176 59208 57139 54872 52255 48816 45328
  891.00 4.014E-05 96786 93473 89860 85949 81639 76781 71276 68186 64848 61186 59243 57150 54883 52292 48854 45391
  893.00 4.004E-05 96803 93457 89885 85964 81643 76823 71304 68232 64910 61289 59341 57268 55020 52398 48976 45505
  895.00 4.006E-05 96780 93435 89840 85921 81603 76785 71268 68198 64878 61258 59311 57264 54993 52396 48977 45507
  897.00 4.012E-05 96735 93420 89831 85942 81630 76820 71311 68245 64905 61291 59347 57278 55035 52418 49003 45538
  899.00 4.011E-05 96834 93543 89978 86088 81800 76988 71478 68412 65071 61431 59486 57417 55148 52531 49115 45649
  901.00 3.866E-05 97181 94128 90817 87144 83057 78427 73073 70072 66813 63218 61278 59183 56906 54268 50750 47181
  903.00 3.971E-05 97054 93881 90431 86653 82423 77663 72173 69101 65752 62100 60136 58071 55779 53160 49710 46210
  905.00 4.013E-05 96785 93521 89983 86120 81834 77050 71567 68502 65163 61550 59606 57538 55270 52679 49265 45801
  907.00 3.990E-05 96867 93609 90075 86216 81955 77193 71754 68697 65414 61805 59875 57794 55564 52957 49549 46065
  909.00 3.955E-05 96890 93628 90114 86271 82048 77320 71909 68900 65638 62073 60152 58104 55853 53274 49861 46372
  911.00 3.991E-05 96843 93561 90028 86169 81934 77174 71736 68705 65397 61814 59885 57830 55600 53019 49587 46154
  913.00 4.004E-05 96778 93507 89960 86114 81868 77098 71653 68606 65310 61738 59790 57742 55495 52922 49501 46054
  915.00 4.005E-05 96879 93608 90087 86242 81973 77204 71760 68714 65418 61823 59875 57828 55581 52984 49588 46142
  917.00 4.004E-05 96878 93606 90085 86239 81993 77248 71803 68756 65460 61863 59940 57867 55644 53047 49650 46204
  919.00 4.006E-05 96855 93610 90090 86271 82027 77284 71842 68822 65527 61932 59985 57938 55691 53095 49700 46256
  921.00 3.976E-05 96957 93763 90292 86519 82319 77591 72158 69140 65845 62274 60337 58275 56036 53446 50025 46579
  923.00 3.830E-05 97389 94569 91462 87990 84073 79582 74334 71358 68120 64543 62585 60496 58198 55535 52010 48433
  925.00 3.964E-05 97023 93870 90414 86655 82467 77775 72376 69349 66070 62487 60570 58527 56282 53683 50277 46796
  927.00 3.991E-05 96893 93661 90203 86394 82185 77474 72087 69055 65798 62215 60286 58231 56001 53420 50013 46580
  929.00 3.998E-05 96798 93572 90095 86293 82091 77389 71986 68984 65708 62131 60205 58179 55928 53377 49975 46548
  931.00 3.999E-05 96824 93598 90098 86322 82121 77419 72018 69017 65741 62191 60265 58215 55989 53413 50038 46587
  933.00 3.995E-05 96921 93692 90213 86433 82228 77522 72140 69136 65857 62278 60375 58323 56095 53517 50113 46683
  935.00 3.992E-05 96844 93637 90155 86373 82189 77505 72119 69138 65857 62300 60396 58342 56137 53557 50175 46743
  937.00 3.991E-05 96943 93736 90253 86470 82285 77600 72212 69206 65948 62365 60461 58406 56176 53621 50213 46805
  939.00 3.993E-05 96945 93739 90283 86501 82319 77636 72276 69271 65990 62434 60506 58477 56248 53669 50288 46857
  941.00 3.940E-05 96954 93782 90355 86624 82513 77868 72589 69619 66396 62893 60990 58959 56751 54213 50812 47360
  943.00 3.987E-05 96965 93755 90319 86556 82393 77728 72385 69375 66115 62578 60647 58616 56383 53825 50439 47003
  945.00 3.980E-05 96884 93693 90251 86482 82337 77688 72362 69372 66131 62588 60704 58668 56457 53894 50528 47085
  947.00 3.988E-05 96891 93706 90271 86510 82372 77708 72392 69383 66148 62613 60682 58651 56444 53862 50502 47091
  949.00 3.988E-05 96966 93781 90346 86610 82472 77808 72467 69483 66224 62688 60757 58726 56494 53937 50552 47141
  951.00 3.984E-05 96913 93750 90336 86621 82480 77836 72515 69528 66290 62751 60818 58785 56576 54016 50628 47214
  953.00 3.965E-05 97100 94023 90668 86961 82875 78235 72888 69912 66658 63077 61160 59117 56873 54300 50921 47491
  955.00 3.787E-05 97571 94904 91946 88619 84869 80539 75442 72538 69316 65778 63850 61764 59467 56826 53314 49723
  957.00 3.965E-05 97074 93972 90618 86910 82825 78184 72863 69887 66658 63102 61185 59143 56923 54351 50971 47541
  959.00 3.980E-05 96910 93769 90377 86683 82563 77940 72638 69673 66457 62915 61005 58970 56759 54196 50829 47412
  961.00 3.972E-05 97004 93857 90458 86757 82654 78046 72759 69789 66566 63016 61128 59089 56873 54330 50957 47533
  963.00 3.962E-05 96971 93841 90459 86774 82686 78092 72817 69864 66633 63125 61232 59213 56991 54442 51085 47678
  965.00 3.967E-05 96975 93849 90446 86741 82632 78044 72750 69801 66574 63070 61155 59138 56945 54399 51021 47618
  967.00 3.958E-05 96943 93810 90450 86761 82693 78120 72865 69909 66700 63214 61319 59298 57074 54548 51162 47777
  969.00 3.971E-05 97003 93881 90506 86804 82725 78142 72878 69907 66683 63158 61269 59229 57013 54470 51121 47721
  971.00 3.969E-05 96951 93827 90451 86747 82666 78080 72840 69866 66667 63139 61250 59234 57017 54472 51121 47745
  973.00 3.968E-05 96951 93826 90449 86769 82712 78125 72858 69909 66709 63206 61290 59274 57082 54536 51184 47782
  975.00 3.957E-05 96967 93859 90498 86833 82765 78191 72959 70028 66818 63331 61435 59414 57215 54663 51327 47915
  977.00 3.962E-05 97022 93917 90560 86875 82812 78243 72993 70040 66835 63327 61434 59414 57219 54669 51312 47930
  979.00 3.961E-05 97021 93916 90558 86897 82833 78263 73012 70083 66877 63368 61474 59455 57233 54708 51351 47968
  981.00 3.960E-05 97020 93914 90581 86919 82854 78308 73056 70126 66919 63409 61540 59520 57298 54773 51414 48030
  983.00 3.960E-05 96944 93838 90505 86869 82828 78258 73056 70101 66919 63409 61540 59520 57323 54773 51439 48056
  985.00 3.958E-05 96993 93886 90551 86913 82895 78348 73118 70187 67004 63492 61597 59576 57377 54851 51491 48130
  987.00 3.952E-05 97065 93978 90663 86994 82971 78416 73203 70268 67080 63588 61690 59691 57490 54934 51594 48203
  989.00 3.948E-05 97062 93997 90679 87031 83004 78470 73252 70339 67148 63652 61753 59752 57548 55015 51672 48278
  991.00 3.949E-05 97063 93998 90681 87035 83034 78501 73284 70372 67182 63687 61788 59787 57584 55052 51684 48316
  993.00 3.952E-05 97065 93978 90663 87045 83021 78492 73305 70369 67181 63689 61791 59767 57566 55035 51695 48330
  995.00 3.951E-05 97013 93951 90661 87041 83017 78512 73298 70387 67198 63705 61807 59808 57606 55075 51734 48368
  997.00 3.950E-05 97013 93975 90658 87038 83038 78532 73342 70405 67241 63747 61848 59848 57646 55114 51772 48405
  999.00 3.948E-05 96986 93921 90628 87031 83029 78521 73354 70441 67249 63779 61879 59878 57675 55142 51824 48455
 1002.50 3.909E-05 97237 94295 91072 87542 83602 79151 73983 71067 67869 64364 62471 60450 58250 55692 52341 48938
 1007.50 3.855E-05 97328 94475 91362 87938 84099 79715 74656 71777 68612 65162 63268 61245 59040 56472 53100 49676
 1012.50 3.922E-05 97093 94085 90821 87251 83299 78812 73687 70780 67619 64151 62290 60275 58083 55558 52244 48853
 1017.50 3.906E-05 97056 94060 90783 87225 83257 78827 73707 70814 67691 64235 62366 60394 58218 55709 52381 49027
 1022.50 3.913E-05 97112 94097 90851 87273 83338 78891 73754 70866 67723 64273 62407 60414 58242 55712 52389 49042
 1027.50 3.918E-05 97090 94104 90837 87315 83359 78918 73813 70929 67790 64319 62455 60465 58270 55768 52450 49107
 1032.50 3.893E-05 97149 94169 90932 87388 83457 79039 73953 71102 67968 64526 62677 60673 58490 55998 52684 49319
 1037.50 3.892E-05 97122 94142 90930 87410 83505 79085 74024 71146 68037 64594 62744 60740 58582 56064 52749 49409
 1042.50 3.901E-05 97180 94207 91002 87490 83594 79185 74109 71238 68111 64650 62779 60779 58600 56088 52781 49449
 1047.50 3.878E-05 97138 94198 91001 87519 83651 79293 74239 71403 68308 64879 63022 61037 58871 56343 53043 49716
 1052.50 3.890E-05 97172 94242 91054 87558 83702 79332 74267 71414 68303 64859 62982 61003 58817 56298 53008 49666
 1057.50 3.874E-05 97135 94192 91043 87584 83712 79375 74368 71528 68431 64997 63139 61177 58983 56505 53201 49871
 1062.50 3.857E-05 97200 94296 91133 87685 83848 79518 74514 71688 68603 65180 63339 61343 59165 56676 53383 50039
 1067.50 3.809E-05 97270 94408 91310 87897 84143 79863 74928 72145 69073 65687 63849 61880 59727 57233 53925 50591
 1072.50 3.846E-05 97218 94332 91212 87780 83983 79667 74701 71867 68799 65393 63547 61544 59386 56890 53614 50286
 1077.50 3.827E-05 97230 94356 91246 87823 84034 79749 74784 71989 68905 65508 63679 61693 59524 57042 53750 50431
 1082.50 3.804E-05 97213 94348 91246 87855 84069 79811 74869 72082 69033 65668 63828 61856 59700 57229 53943 50605
 1087.50 3.810E-05 97244 94409 91312 87927 84147 79895 74961 72178 69108 65722 63885 61916 59764 57297 54016 50709
 1092.50 3.722E-05 97689 95137 92343 89226 85680 81596 76787 74019 70956 67544 65690 63675 61472 58893 55535 52123
 1097.50 3.788E-05 97413 94641 91631 88305 84583 80333 75422 72650 69588 66183 64335 62355 60190 57682 54382 51082
 1102.50 3.830E-05 97232 94413 91332 87963 84204 79948 75013 72219 69138 65718 63864 61880 59713 57232 53943 50653
 1107.50 3.838E-05 97238 94424 91350 87962 84211 79964 75013 72199 69125 65711 63835 61855 59666 57165 53882 50599
 1112.50 3.823E-05 97253 94428 91368 87994 84279 80016 75098 72325 69239 65838 63981 61993 59822 57311 54041 50772
 1117.50 3.811E-05 97297 94463 91420 88061 84335 80110 75230 72422 69352 65967 64104 62110 59958 57439 54185 50879
 1122.50 3.821E-05 97278 94478 91442 88092 84376 80136 75216 72442 69354 65925 64067 62078 59906 57393 54122 50851
 1127.50 3.781E-05 97355 94578 91563 88257 84581 80402 75536 72759 69717 66332 64480 62497 60328 57815 54536 51256
 1132.50 3.793E-05 97364 94569 91563 88268 84577 80385 75508 72739 69681 66280 64408 62431 60243 57738 54469 51200
 1137.50 3.790E-05 97335 94565 91530 88232 84538 80343 75488 72691 69631 66253 64380 62401 60211 57704 54433 51161
 1142.50 3.763E-05 97316 94579 91576 88307 84640 80494 75658 72894 69838 66463 64603 62610 60457 57959 54690 51422
 1147.50 3.798E-05 97314 94550 91548 88257 84571 80411 75540 72749 69668 66272 64402 62401 60190 57688 54423 51159
 1152.50 3.793E-05 97364 94595 91616 88347 84656 80490 75639 72845 69786 66359 64487 62484 60295 57764 54495 51252
 1157.50 3.778E-05 97327 94600 91609 88327 84674 80519 75675 72896 69852 66437 64558 62573 60376 57888 54606 51376
 1162.50 3.741E-05 97407 94707 91740 88506 84897 80754 75942 73189 70168 66747 64902 62898 60706 58193 54932 51644
 1167.50 3.749E-05 97413 94719 91758 88530 84929 80822 76020 73273 70232 66818 64951 62950 60763 58256 54975 51720
 1172.50 3.775E-05 97404 94702 91735 88503 84874 80742 75894 73139 70066 66623 64742 62728 60503 57987 54702 51470
 1177.50 3.725E-05 97450 94792 91866 88671 85101 81020 76242 73530 70497 67087 65235 63248 61047 58523 55248 51973
 1182.50 3.720E-05 97446 94785 91855 88656 85081 80995 76237 73495 70484 67097 65215 63226 61048 58548 55269 52016
 1187.50 3.710E-05 97439 94771 91887 88679 85121 81051 76280 73531 70512 67116 65229 63235 61024 58518 55229 51968
 1192.50 3.757E-05 97392 94730 91802 88608 85015 80916 76098 73330 70269 66835 64945 62923 60687 58158 54884 51637
 1197.50 3.673E-05 97468 94827 91941 88756 85216 81160 76450 73754 70732 67384 65532 63545 61367 58862 55595 52355
 1202.50 3.711E-05 97440 94799 91916 88736 85206 81137 76395 73673 70628 67233 65373 63352 61143 58636 55349 52115
 1207.50 3.698E-05 97458 94808 91942 88778 85235 81206 76447 73716 70687 67307 65414 63413 61195 58680 55408 52163
 1212.50 3.717E-05 97471 94835 91956 88781 85230 81195 76433 73688 70648 67232 65348 63304 61098 58569 55260 52031
 1217.50 3.731E-05 97454 94800 91932 88770 85232 81185 76414 73653 70598 67140 65237 63200 60949 58403 55106 51863
 1222.50 3.725E-05 97423 94792 91946 88779 85262 81208 76456 73691 70631 67195 65289 63248 60993 58443 55141 51919
 1227.50 3.703E-05 97516 94896 92033 88901 85390 81366 76641 73913 70861 67432 65514 63489 61248 58682 55388 52147
 1232.50 3.712E-05 97522 94908 92053 88928 85399 81385 76643 73895 70824 67376 65463 63416 61153 58594 55280 52047
 1237.50 3.705E-05 97436 94845 92011 88880 85371 81350 76626 73873 70823 67368 65479 63428 61188 58596 55304 52065
 1242.50 3.698E-05 97566 94970 92131 88994 85506 81476 76744 74013 70957 67523 65603 63548 61276 58707 55381 52163
 1247.50 3.700E-05 97486 94892 92081 88973 85486 81486 76757 74027 70973 67514 65595 63514 61243 58676 55351 52135
 1252.50 3.691E-05 97535 94961 92143 89054 85559 81577 76863 74126 71065 67597 65673 63614 61338 58765 55432 52208
 1257.50 3.684E-05 97557 95005 92210 89115 85668 81678 76982 74267 71200 67725 65798 63735 61455 58849 55510 52280
 1262.50 3.678E-05 97499 94943 92170 89070 85617 81648 76971 74252 71207 67727 65824 63730 61474 58864 55519 52311
 1267.50 3.669E-05 97520 94958 92178 89098 85664 81684 76996 74298 71246 67784 65849 63778 61515 58926 55574 52358
 1272.50 3.675E-05 97524 94993 92245 89170 85741 81796 77088 74367 71320 67837 65905 63810 61497 58884 55537 52299
 1277.50 3.657E-05 97730 95269 92562 89554 86164 82226 77550 74815 71753 68253 66284 64178 61854 59202 55811 52557
 1282.50 3.451E-05 98174 96146 93886 91278 88293 84729 80354 77775 74819 71400 69458 67343 64996 62330 58824 55433
 1287.50 3.645E-05 97695 95226 92538 89520 86118 82195 77531 74815 71770 68258 66310 64198 61866 59232 55830 52593
 1292.50 3.647E-05 97614 95092 92350 89334 85934 81985 77351 74637 71566 68083 66137 64053 61722 59090 55717 52481
 1297.50 3.652E-05 97618 95126 92388 89376 85980 82065 77410 74699 71632 68127 66183 64047 61720 59064 55696 52437
 1302.50 3.639E-05 97609 95136 92388 89393 85985 82083 77439 74746 71696 68178 66254 64111 61803 59137 55757 52542
 1307.50 3.643E-05 97557 95059 92341 89349 85973 82075 77436 74719 71672 68186 66209 64096 61735 59072 55696 52457
 1312.50 3.612E-05 97647 95183 92497 89507 86130 82254 77658 74972 71927 68466 66501 64396 62071 59413 56008 52769
 1317.50 3.606E-05 97643 95175 92485 89490 86134 82280 77704 75014 71991 68497 66556 64420 62091 59429 56018 52773
 1322.50 3.627E-05 97656 95175 92501 89523 86159 82299 77667 74966 71933 68404 66419 64268 61924 59222 55804 52550
 1327.50 3.606E-05 97587 95147 92457 89462 86106 82252 77676 74986 71936 68441 66500 64337 62008 59318 55907 52662
 1332.50 3.610E-05 97673 95208 92548 89584 86233 82382 77812 75125 72078 68560 66593 64432 62050 59335 55900 52659
 1337.50 3.603E-05 97641 95226 92562 89592 86261 82431 77852 75160 72107 68609 66639 64474 62087 59367 55953 52678
 1342.50 3.610E-05 97701 95263 92604 89668 86371 82521 77950 75263 72216 68670 66676 64515 62105 59363 55900 52632
 1347.50 3.603E-05 97696 95282 92645 89703 86400 82570 78018 75326 72273 68748 66750 64557 62143 59395 55926 52678
 1352.50 3.598E-05 97693 95275 92663 89744 86437 82629 78071 75403 72346 68816 66815 64619 62201 59450 55976 52696
 1357.50 3.575E-05 97706 95301 92671 89762 86490 82685 78126 75469 72448 68923 66937 64755 62350 59608 56140 52867
 1362.50 3.582E-05 97655 95254 92630 89726 86432 82635 78085 75405 72362 68844 66862 64657 62256 59492 56002 52708
 1367.50 3.577E-05 97708 95331 92703 89824 86553 82751 78222 75566 72519 68996 66984 64803 62371 59575 56081 52810
 1372.50 3.567E-05 97757 95402 92823 89964 86712 82983 78469 75806 72778 69246 67227 65041 62574 59770 56238 52958
 1377.50 3.566E-05 97729 95373 92765 89905 86652 82894 78407 75743 72715 69181 67162 64947 62507 59703 56169 52888
 1382.50 3.566E-05 97729 95373 92821 89961 86708 82978 78463 75827 72771 69237 67218 65003 62535 59703 56169 52860
 1387.50 3.564E-05 97783 95426 92845 89983 86756 82997 78507 75842 72783 69248 67228 64983 62514 59680 56089 52778
 1392.50 3.559E-05 97752 95420 92863 90025 86822 83113 78618 75976 72942 69402 67350 65131 62630 59792 56196 52880
 1397.50 3.554E-05 97777 95442 92909 90068 86888 83146 78700 76055 73016 69471 67445 65194 62690 59820 56218 52898
 1402.50 3.537E-05 97738 95420 92875 90048 86853 83121 78682 76025 73028 69494 67458 65225 62737 59881 56291 52954
 1407.50 3.546E-05 97772 95488 92950 90130 86943 83249 78793 76170 73125 69571 67541 65285 62775 59870 56232 52905
 1412.50 3.523E-05 97814 95515 92989 90207 87028 83338 78910 76299 73290 69742 67698 65456 62958 60062 56429 53080
 1417.50 3.539E-05 97824 95535 93049 90251 87087 83413 79005 76349 73326 69765 67731 65442 62899 59960 56287 52925
 1422.50 3.503E-05 97830 95547 93063 90265 87125 83471 79047 76449 73451 69940 67913 65658 63117 60234 56580 53212
 1427.50 3.486E-05 97820 95554 93058 90275 87149 83505 79116 76535 73551 70023 68015 65749 63253 60356 56684 53328
 1432.50 3.516E-05 97810 95535 93060 90301 87173 83532 79152 76536 73521 69966 67918 65643 63083 60125 56399 53015
 1437.50 3.522E-05 97871 95627 93157 90432 87308 83674 79302 76689 73651 70102 68030 65730 63118 60136 56388 52981
 1442.50 3.452E-05 97914 95713 93279 90585 87486 83922 79606 77028 74073 70568 68540 66309 63760 60805 57097 53679
 1447.50 3.508E-05 97891 95696 93244 90507 87429 83837 79475 76853 73860 70296 68216 65906 63284 60262 56499 53050
 1452.50 3.463E-05 97892 95697 93272 90586 87525 83945 79642 77072 74126 70604 68553 66272 63673 60699 56945 53509
 1457.00 3.478E-05 97901 95716 93301 90598 87550 83985 79672 77085 74123 70558 68516 66187 63571 60552 56728 53278
 1462.00 3.485E-05 97991 95811 93400 90703 87661 84075 79770 77188 74204 70646 68580 66255 63615 60545 56700 53228
 1467.50 3.481E-05 97989 95806 93421 90721 87676 84142 79833 77248 74289 70727 68658 66332 63660 60586 56737 53232
 1472.50 3.454E-05 98002 95831 93428 90764 87724 84192 79907 77360 74378 70845 68790 66474 63839 60799 56920 53445
 1477.50 3.454E-05 98002 95860 93486 90822 87811 84279 80023 77475 74522 70990 68906 66589 63955 60857 56977 53474
 1482.50 3.456E-05 98032 95891 93519 90856 87847 84346 80093 77546 74566 71036 68953 66638 63976 60851 56944 53414
 1487.50 3.411E-05 98036 95896 93550 90912 87951 84462 80240 77719 74787 71269 69247 66931 64292 61214 57344 53826
 1492.50 3.462E-05 98065 95927 93588 90959 87984 84489 80243 77701 74754 71202 69122 66753 64067 60890 56904 53322
 1497.50 3.437E-05 98051 95927 93570 90951 87984 84521 80303 77771 74833 71312 69246 66919 64242 61071 57085 53535
 1502.50 3.370E-05 98042 95935 93591 91009 88042 84599 80445 77953 75074 71602 69585 67300 64688 61632 57745 54243
 1507.50 3.382E-05 98078 95979 93643 91070 88114 84684 80514 78031 75133 71674 69633 67327 64666 61532 57599 54021
 1512.50 3.430E-05 98076 95977 93673 91079 88163 84723 80554 78047 75131 71604 69534 67172 64461 61224 57172 53557
 1517.50 3.427E-05 98103 96032 93726 91158 88270 84856 80683 78203 75285 71754 69682 67318 64575 61336 57222 53575
 1522.50 3.399E-05 98117 96058 93763 91233 88320 84937 80847 78347 75463 71992 69903 67579 64843 61606 57517 53839
 1527.50 3.405E-05 98120 96094 93833 91307 88429 85051 80969 78502 75624 72129 70044 67695 64934 61674 57504 53833
 1532.50 3.396E-05 98115 96084 93846 91343 88457 85100 81037 78563 75677 72203 70141 67756 65018 61749 57568 53857
 1537.50 3.390E-05 98171 96136 93923 91416 88584 85251 81209 78761 75870 72389 70324 67965 65192 61888 57670 53923
 1542.50 3.389E-05 98171 96164 93951 91502 88669 85364 81322 78902 76040 72558 70493 68103 65329 61995 57775 53998
 1547.50 3.384E-05 98197 96218 94031 91548 88741 85461 81413 78989 76123 72636 70567 68174 65366 62027 57772 53989
 1552.50 3.364E-05 98187 96195 94025 91558 88763 85464 81421 79013 76159 72681 70600 68252 65458 62128 57878 54102
 1557.50 3.348E-05 98208 96207 94026 91577 88769 85514 81511 79092 76254 72820 70759 68399 65651 62336 58065 54301
 1562.50 3.367E-05 98218 96258 94119 91684 88922 85655 81645 79240 76388 72943 70864 68488 65667 62281 57915 54084
 1567.50 3.328E-05 98227 96274 94111 91707 88942 85697 81731 79327 76502 73077 71034 68690 65895 62560 58263 54447
 1572.50 3.325E-05 98226 96301 94165 91759 89053 85865 81955 79579 76812 73414 71368 69023 66226 62857 58496 54617
 1577.50 3.278E-05 98200 96278 94112 91702 88957 85723 81757 79378 76602 73215 71202 68853 66138 62843 58603 54820
 1582.50 3.309E-05 98247 96343 94198 91810 89060 85857 81928 79541 76730 73315 71260 68933 66153 62768 58416 54548
 1587.50 3.231E-05 98236 96348 94243 91891 89198 86072 82235 79913 77159 73847 71866 69576 66852 63572 59301 55463
 1592.50 3.295E-05 98270 96358 94264 91897 89165 85979 82064 79697 76904 73505 71442 69105 66313 62914 58543 54659
 1597.50 3.307E-05 98246 96311 94194 91805 89054 85878 81947 79589 76807 73420 71394 69035 66253 62836 58422 54490
 1605.00 3.281E-05 98293 96404 94331 92015 89333 86193 82322 80006 77233 73849 71838 69491 66687 63243 58793 54800
 1615.00 3.238E-05 98332 96479 94441 92156 89561 86473 82705 80420 77702 74398 72390 70074 67295 63867 59389 55405
 1625.00 3.268E-05 98286 96420 94339 91983 89290 86138 82283 79957 77234 73868 71848 69492 66707 63280 58752 54743
 1635.00 3.213E-05 98350 96545 94553 92281 89698 86648 82913 80610 77933 74603 72611 70277 67507 64052 59508 55493
 1645.00 3.158E-05 98385 96612 94680 92464 89930 86985 83312 81064 78436 75174 73179 70899 68144 64725 60196 56143
 1655.00 3.201E-05 98251 96407 94346 92034 89410 86317 82537 80225 77507 74196 72196 69884 67104 63699 59200 55201
 1665.00 3.175E-05 98236 96409 94362 92063 89417 86331 82551 80252 77575 74268 72283 69953 67181 63780 59307 55307
 1675.00 3.101E-05 98420 96678 94711 92519 90003 87036 83360 81103 78459 75202 73202 70913 68139 64753 60271 56272
 1685.00 3.034E-05 98451 96770 94891 92749 90310 87442 83850 81674 79071 75840 73896 71655 68919 65590 61140 57152
 1695.00 3.098E-05 98289 96449 94448 92189 89606 86572 82828 80568 77889 74629 72660 70368 67624 64235 59813 55842
 1705.00 3.056E-05 98266 96401 94372 92081 89496 86453 82690 80432 77781 74542 72579 70288 67605 64267 59948 56054
 1715.00 3.030E-05 98218 96403 94389 92112 89505 86469 82772 80528 77888 74620 72673 70429 67723 64455 60132 56271
 1725.00 2.993E-05 98329 96559 94554 92315 89743 86736 83060 80789 78149 74908 72970 70732 68025 64751 60441 56599
 1735.00 2.863E-05 98568 97031 95285 93294 91023 88299 84876 82745 80231 77122 75201 73000 70346 67097 62766 58819
 1745.00 2.930E-05 98430 96689 94744 92560 90068 87133 83481 81263 78635 75427 73481 71229 68567 65324 61024 57201
 1755.00 2.930E-05 98294 96485 94505 92287 89727 86758 83072 80853 78225 75017 73072 70853 68191 64915 60683 56860
 1765.00 2.904E-05 98278 96488 94490 92287 89738 86777 83092 80888 78271 75069 73140 70902 68285 65048 60847 57059
 1775.00 2.880E-05 98264 96458 94479 92257 89722 86736 83090 80868 78229 75035 73125 70903 68264 65069 60868 57118
 1785.00 2.860E-05 98287 96504 94510 92308 89790 86818 83182 80979 78357 75175 73252 71049 68427 65210 61014 57273
 1795.00 2.836E-05 98272 96509 94535 92313 89810 86848 83216 80994 78385 75212 73307 71086 68477 65268 61107 57370
 1805.00 2.804E-05 98359 96612 94650 92475 89979 87054 83452 81241 78638 75464 73573 71362 68759 65585 61448 57703
 1815.00 2.677E-05 98655 97161 95517 93612 91408 88756 85431 83377 80911 77886 76018 73851 71274 68136 63952 60142
 1825.00 2.730E-05 98498 96813 94982 92894 90476 87619 84066 81905 79341 76190 74286 72088 69524 66337 62234 58535
 1835.00 2.734E-05 98317 96562 94660 92465 89978 87052 83467 81309 78713 75567 73702 71507 68947 65801 61778 58120
 1845.00 2.699E-05 98333 96554 94628 92442 89959 87032 83438 81289 78733 75621 73731 71582 69063 65950 61986 58355
 1855.00 2.689E-05 98289 96579 94645 92488 90033 87133 83563 81406 78840 75716 73856 71662 69134 66047 62030 58423
 1865.00 2.647E-05 98451 96751 94824 92709 90253 87382 83831 81640 79108 76011 74122 71968 69475 66415 62448 58859
 1875.00 2.472E-05 98786 97451 95955 94215 92193 89725 86610 84628 82322 79409 77629 75566 73139 70146 66222 62500
 1885.00 2.605E-05 98464 96814 94971 92860 90441 87601 84107 81958 79424 76315 74472 72322 69827 66756 62802 59232
 1895.00 2.568E-05 98364 96651 94743 92601 90148 87266 83723 81581 79089 76012 74182 72118 69665 66706 62889 59385
 1905.00 2.579E-05 98294 96588 94688 92555 90112 87243 83715 81543 79023 75960 74098 72005 69523 66499 62621 59093
 1915.00 2.553E-05 98355 96631 94712 92597 90168 87309 83784 81629 79123 76067 74226 72150 69683 66667 62828 59303
 1925.00 2.534E-05 98343 96646 94751 92620 90213 87372 83860 81728 79203 76164 74349 72218 69771 66811 62944 59432
 1935.00 2.498E-05 98439 96757 94916 92834 90432 87590 84107 81946 79464 76421 74620 72498 70056 67134 63331 59848
 1945.00 2.368E-05 98775 97424 95904 94130 92103 89611 86444 84459 82137 79223 77492 75465 73057 70144 66301 62711
 1955.00 2.461E-05 98456 96831 94961 92930 90532 87729 84275 82162 79683 76636 74848 72775 70337 67412 63592 60098
 1965.00 2.449E-05 98326 96652 94773 92650 90282 87423 83953 81829 79379 76358 74561 72479 70069 67211 63454 60025
 1975.00 2.420E-05 98388 96694 94835 92727 90331 87521 84091 81983 79504 76529 74711 72686 70289 67438 63719 60289
 1985.00 2.410E-05 98382 96681 94813 92697 90290 87510 84025 81909 79461 76473 74689 72614 70249 67386 63651 60249
 1995.00 2.393E-05 98370 96657 94818 92729 90305 87505 84037 81947 79482 76515 74718 72670 70288 67447 63769 60343
 2005.00 2.379E-05 98361 96679 94830 92770 90374 87600 84153 82051 79613 76587 74821 72762 70408 67549 63850 60446
 2015.00 2.364E-05 98393 96701 94882 92809 90440 87648 84222 82149 79695 76692 74915 72885 70516 67640 63959 60533
 2025.00 2.337E-05 98374 96705 94865 92769 90415 87634 84168 82114 79675 76680 74925 72914 70561 67736 64099 60762
 2035.00 2.311E-05 98312 96668 94807 92730 90394 87581 84163 82129 79662 76720 74989 72999 70662 67893 64301 60969
 2045.00 2.307E-05 98440 96792 94928 92891 90550 87776 84352 82315 79844 76896 75119 73125 70785 67967 64326 60945
 2055.00 2.288E-05 98339 96678 94886 92832 90472 87719 84309 82255 79808 76879 75087 73121 70760 68007 64379 61058
 2065.00 2.260E-05 98407 96726 94912 92876 90575 87788 84425 82389 79956 77035 75310 73319 71018 68274 64690 61372
 2075.00 2.248E-05 98443 96797 94973 92927 90569 87856 84475 82429 79982 77091 75356 73354 71041 68283 64724 61432
 2085.00 2.233E-05 98343 96686 94895 92880 90551 87774 84416 82356 79937 77026 75280 73309 71026 68294 64756 61442
 2095.00 2.207E-05 98414 96783 94971 92932 90621 87857 84504 82465 80063 77164 75442 73493 71228 68509 64975 61713
 2105.00 2.199E-05 98408 96771 94952 92951 90632 87904 84584 82538 80127 77217 75489 73533 71260 68531 65030 61755
 2115.00 2.180E-05 98486 96835 95046 93028 90734 88028 84679 82661 80275 77339 75642 73670 71422 68716 65183 61927
 2125.00 2.163E-05 98474 96856 95053 93065 90754 88026 84697 82663 80305 77393 75682 73740 71475 68793 65280 62043
 2135.00 2.148E-05 98417 96834 95065 93063 90782 88082 84730 82728 80307 77467 75745 73790 71555 68855 65410 62151
 2145.00 2.133E-05 98453 96812 95077 93061 90811 88092 84763 82747 80356 77496 75809 73840 71589 68917 65448 62213
 2155.00 2.113E-05 98533 96971 95220 93280 91008 88358 85045 83010 80644 77757 76053 74113 71888 69191 65736 62470
 2165.00 2.002E-05 98851 97602 96204 94605 92657 90360 87363 85514 83317 80619 78971 77123 74925 72278 68781 65485
 2175.00 2.071E-05 98600 97055 95365 93433 91212 88556 85225 83245 80879 78030 76340 74408 72187 69580 66152 62916
 2185.00 2.061E-05 98447 96846 95099 93159 90878 88210 84910 82921 80592 77778 76080 74187 72004 69384 65987 62834
 2195.00 2.054E-05 98491 96884 95131 93184 90945 88267 84956 82960 80623 77751 76095 74197 71957 69377 65969 62804
 2205.00 2.028E-05 98471 96844 95118 93146 90878 88215 84961 82988 80671 77860 76183 74310 72140 69576 66223 63067
 2215.00 2.022E-05 98467 96884 95153 93225 90950 88328 85015 83037 80712 77893 76261 74332 72156 69585 66222 63056
 2225.00 2.006E-05 98504 96909 95165 93170 90927 88285 84995 83001 80658 77866 76221 74327 72183 69591 66251 63111
 2235.00 1.992E-05 98444 96888 95131 93173 90914 88253 84990 83032 80673 77861 76255 74347 72189 69629 66315 63203
 2245.00 1.977E-05 98432 96864 95144 93171 90946 88265 85028 83055 80728 77946 76277 74406 72281 69752 66464 63328
 2255.00 1.961E-05 98419 96838 95156 93167 90974 88322 85059 83121 80826 78021 76390 74554 72412 69913 66599 63488
 2265.00 1.946E-05 98407 96865 95118 93165 90956 88284 85046 83094 80781 78006 76362 74512 72405 69887 66650 63566
 2275.00 1.934E-05 98449 96846 95140 93226 91003 88366 85109 83144 80869 78077 76474 74612 72544 70010 66753 63702
 2285.00 1.917E-05 98435 96922 95201 93219 91028 88419 85185 83203 80908 78195 76578 74752 72613 70162 66927 63850
 2295.00 1.902E-05 98475 96898 95163 93218 90957 88275 85016 83018 80705 77865 76236 74395 72240 69716 66351 63197
 2305.00 1.893E-05 98468 96883 95193 93238 91020 88378 85156 83148 80877 78077 76492 74643 72530 69995 66719 63603
 2315.00 1.877E-05 98455 96910 95205 93287 91050 88439 85189 83218 80927 78210 76558 74747 72669 70218 66969 63879
 2325.00 1.859E-05 98494 96880 95159 93168 90909 88219 84938 82948 80581 77784 76170 74287 72189 69661 66326 63152
 2335.00 1.846E-05 98483 96912 95233 93283 91062 88407 85157 83207 80932 78169 76544 74756 72644 70206 66956 63868
 2345.00 1.839E-05 98477 96955 95215 93312 91082 88472 85264 83306 81022 78303 76672 74878 72811 70310 67102 64002
 2355.00 1.817E-05 98459 96918 95157 93176 90919 88277 84975 82939 80627 77821 76225 74353 72262 69785 66538 63346
 2365.00 1.811E-05 98454 96908 95196 93263 91055 88459 85202 83269 80950 78244 76588 74821 72722 70293 67090 63943
 2375.00 1.796E-05 98497 96993 95267 93374 91147 88530 85356 83408 81125 78452 76837 75056 72996 70601 67428 64365
 2385.00 1.776E-05 98480 96959 95214 93243 90991 88345 85079 83108 80800 78041 76408 74606 72579 70101 66892 63739
 2395.00 1.771E-05 98475 96951 95257 93337 91135 88538 85319 83343 81084 78374 76793 74986 72953 70525 67363 64257
 2405.00 1.758E-05 98578 97042 95336 93402 91240 88623 85438 83504 81286 78555 77019 75199 73208 70819 67634 64619
 2415.00 1.741E-05 98507 96956 95290 93337 91097 88455 85238 83285 80988 78288 76680 74899 72889 70477 67260 64159
 2425.00 1.732E-05 98557 96998 95323 93418 91224 88626 85393 83487 81236 78522 76963 75173 73152 70785 67667 64550
 2435.00 1.718E-05 98545 97031 95343 93423 91269 88708 85506 83586 81374 78696 77125 75378 73399 71071 67928 64901
 2445.00 1.706E-05 98593 97069 95369 93435 91266 88687 85463 83529 81301 78605 77022 75264 73271 70868 67702 64654
 2455.00 1.688E-05 98578 97038 95379 93483 91291 88744 85545 83649 81398 78732 77192 75474 73460 71149 68009 64988
 2465.00 1.685E-05 98635 97092 95430 93591 91395 88843 85697 83798 81543 78932 77389 75608 73650 71335 68249 65223
 2475.00 1.670E-05 98563 97006 95329 93473 91317 88743 85569 83713 81497 78802 77305 75569 73593 71257 68204 65150
 2485.00 1.650E-05 98545 97091 95394 93515 91394 88788 85697 83758 81576 78909 77394 75697 73758 71455 68364 65333
 2495.00 1.647E-05 98664 97146 95507 93625 91439 88889 85792 83910 81664 79053 77535 75835 73892 71585 68549 65574
 2505.00 1.642E-05 98538 97016 95372 93484 91291 88733 85627 83739 81547 78867 77345 75639 73752 71437 68392 65469
 2515.00 1.627E-05 98525 97050 95390 93485 91334 88752 85618 83712 81500 78857 77320 75661 73694 71358 68347 65335
 2525.00 1.616E-05 98639 97153 95483 93626 91522 88985 85891 84035 81807 79208 77723 76052 74134 71844 68812 65842
 2535.00 1.606E-05 98568 97136 95455 93587 91470 88979 85866 83998 81818 79203 77709 76027 74097 71856 68867 65940
 2545.00 1.595E-05 98558 97116 95423 93605 91411 88903 85768 83887 81693 79122 77618 75925 74044 71787 68777 65831
 2555.00 1.582E-05 98609 97156 95512 93679 91530 89001 85904 84071 81858 79330 77813 76169 74273 71997 69027 66119
 2565.00 1.567E-05 98660 97192 95597 93746 91640 89151 86088 84237 82068 79579 78111 76452 74537 72368 69368 66496
 2575.00 1.566E-05 98595 97126 95530 93678 91571 89080 86015 84163 81992 79438 77905 76245 74393 72158 69221 66284
 2585.00 1.546E-05 98577 97089 95472 93596 91462 89004 85899 84023 81889 79366 77878 76261 74450 72251 69340 66429
 2595.00 1.544E-05 98575 97150 95531 93653 91580 89054 85946 84132 81995 79404 77979 76295 74417 72215 69301 66451
 2605.00 1.533E-05 98630 97195 95564 93803 91716 89237 86171 84344 82192 79648 78213 76582 74690 72472 69537 66667
 2615.00 1.515E-05 98680 97294 95710 93927 91881 89439 86469 84620 82508 80000 78548 76898 75050 72871 69967 67063
 2625.00 1.447E-05 98963 97858 96545 95024 93296 91154 88459 86800 84796 82446 81064 79544 77747 75605 72702 69730
 2635.00 1.498E-05 98732 97263 95728 93925 91856 89386 86382 84579 82443 79973 78505 76903 75033 72897 70027 67156
 2645.00 1.490E-05 98591 97114 95503 93691 91611 89128 86107 84295 82215 79732 78322 76711 74899 72752 69933 67114
 2655.00 1.482E-05 98516 97099 95479 93657 91565 89136 86100 84278 82186 79690 78273 76653 74831 72740 69838 67058
 2665.00 1.464E-05 98634 97199 95628 93784 91735 89344 86339 84495 82445 79986 78552 76981 75205 73087 70287 67466
 2675.00 1.457E-05 98696 97323 95745 94029 91970 89568 86616 84832 82773 80302 78929 77351 75566 73439 70556 67790
 2685.00 1.457E-05 98627 97186 95607 93823 91764 89362 86342 84557 82498 80027 78586 77008 75154 73027 70213 67447
 2695.00 1.449E-05 98551 97170 95514 93720 91649 89234 86197 84403 82264 79848 78399 76812 75017 72878 70117 67302
 2705.00 1.440E-05 98542 97153 95556 93750 91667 89236 86181 84375 82292 79861 78472 76875 75139 72986 70208 67424
 2715.00 1.430E-05 98601 97133 95524 93776 91678 89231 86224 84476 82378 79930 78531 76923 75175 73077 70280 67545
 2725.00 1.421E-05 98593 97185 95567 93807 91696 89303 86277 84518 82407 80014 78607 77058 75299 73188 70373 67671
 2735.00 1.413E-05 98585 97169 95541 93772 91720 89243 86270 84501 82449 79972 78556 76999 75230 73178 70375 67615
 2745.00 1.404E-05 98576 97222 95655 93875 91809 89387 86467 84687 82621 80199 78775 77208 75499 73362 70620 67892
 2755.00 1.383E-05 98698 97325 95806 94143 92119 89805 86913 85105 83153 80766 79393 77874 76139 74114 71323 68604
 2765.00 1.379E-05 98767 97317 95794 94054 92023 89703 86730 84989 82959 80566 79188 77665 75925 73894 71124 68419
 2775.00 1.376E-05 98619 97166 95640 93823 91788 89390 86410 84666 82631 80233 78852 77326 75581 73547 70799 68089
 2785.00 1.368E-05 98684 97222 95687 93860 91813 89401 86477 84722 82675 80263 78947 77412 75658 73611 70906 68216
 2795.00 1.361E-05 98604 97208 95591 93828 91771 89346 86407 84644 82660 80235 78913 77370 75680 73622 70889 68200
 2805.00 1.352E-05 98595 97189 95636 93861 91790 89423 86465 84689 82692 80325 78920 77441 75740 73676 70969 68284
 2815.00 1.344E-05 98586 97173 95610 93824 91815 89435 86458 84747 82738 80357 79018 77455 75744 73743 71042 68363
 2825.00 1.335E-05 98652 97228 95655 93858 91835 89438 86517 84794 82772 80375 79026 77528 75805 73813 71124 68457
 2835.00 1.328E-05 98569 97139 95557 93825 91792 89383 86446 84714 82681 80346 78991 77485 75753 73773 71069 68366
 2845.00 1.318E-05 98558 97193 95599 93854 91806 89454 86495 84750 82777 80425 79135 77618 75948 73953 71290 68649
 2855.00 1.311E-05 98551 97178 95652 93898 91838 89474 86575 84821 82838 80549 79176 77727 76011 74027 71358 68711
 2865.00 1.299E-05 98691 97306 95843 94149 92148 89761 86913 85219 83218 80908 79523 78060 76405 74419 71755 69122
 2875.00 1.278E-05 98826 97496 96009 94366 92488 90219 87402 85759 83803 81534 80282 78795 77160 75196 72543 69906
 2885.00 1.286E-05 98600 97278 95723 94012 91991 89658 86781 85070 83126 80793 79471 77994 76330 74370 71734 69121
 2895.00 1.279E-05 98671 97263 95700 93980 92025 89601 86708 84988 83034 80766 79437 77952 76302 74339 71704 69093
 2905.00 1.272E-05 98585 97170 95597 93868 91903 89544 86635 84906 82940 80660 79324 77854 76203 74245 71612 68978
 2915.00 1.264E-05 98576 97152 95649 93908 91851 89557 86630 84968 82991 80696 79351 77935 76297 74351 71733 69114
 2925.00 1.255E-05 98645 97211 95697 93944 91952 89562 86693 85020 83028 80797 79474 78032 76406 74478 71873 69283
 2935.00 1.249E-05 98639 97278 95757 93995 91994 89672 86789 85108 83106 80865 79552 78110 76485 74556 71962 69384
 2945.00 1.240E-05 98629 97258 95726 93952 92016 89677 86774 85081 83145 80887 79597 78169 76548 74629 72048 69476
 2955.00 1.234E-05 98622 97245 95705 94003 91977 89708 86791 85170 83225 80916 79627 78201 76580 74660 72083 69514
 2965.00 1.227E-05 98615 97229 95681 93969 92013 89650 86797 85086 83211 80921 79633 78215 76601 74686 72111 69535
 2975.00 1.219E-05 98687 97293 95734 94011 92043 89746 86874 85234 83265 81001 79721 78302 76694 74791 72223 69647
 2985.00 1.212E-05 98597 97277 95710 93977 91997 89686 86881 85149 83251 81007 79728 78317 76716 74818 72261 69703
 2995.00 1.204E-05 98671 97259 95764 94020 92110 89784 86960 85216 83306 81096 79826 78422 76836 74950 72400 69859
 3005.00 1.197E-05 98663 97327 95739 94069 92063 89808 86967 85297 83375 81145 79875 78471 76892 75013 72473 69933
 3015.00 1.191E-05 98573 97229 95718 94039 92024 89757 86902 85306 83359 81134 79874 78472 76893 75021 72477 69941
 3025.00 1.183E-05 98648 97295 95773 94083 92139 89856 87067 85376 83500 81285 80025 78631 77050 75182 72654 70127
 3035.00 1.159E-05 98878 97584 96204 94564 92752 90509 87834 86212 84366 82217 80992 79629 78085 76230 73710 71173
 3045.00 1.162E-05 98795 97504 96041 94406 92513 90275 87608 85938 84062 81867 80620 79234 77668 75800 73270 70732
 3055.00 1.162E-05 98709 97332 95869 94148 92169 89931 87091 85473 83580 81386 80138 78761 77203 75344 72840 70327
 3065.00 1.155E-05 98615 97229 95758 94026 92121 89784 87013 85359 83481 81307 80069 78710 77160 75325 72840 70338
 3075.00 1.150E-05 98609 97304 95739 94087 92174 89826 87043 85426 83539 81357 80122 78757 77209 75365 72870 70365
 3085.00 1.142E-05 98687 97285 95797 94133 92207 89842 87110 85473 83599 81427 80201 78844 77303 75473 72995 70508
 3095.00 1.135E-05 98767 97357 95859 94185 92247 89956 87198 85559 83692 81524 80291 78934 77401 75577 73101 70608
 3105.00 1.130E-05 98673 97345 95841 94159 92212 89912 87159 85522 83664 81496 80274 78920 77389 75566 73089 70602
 3115.00 1.118E-05 98658 97317 95886 94186 92308 89982 87272 85653 83810 81682 80474 79132 77621 75823 73372 70912
 3125.00 1.116E-05 98656 97312 95789 94176 92204 89964 87204 85573 83728 81577 80367 79023 77509 75699 73253 70780
 3135.00 1.110E-05 98649 97297 95856 94144 92252 89982 87234 85613 83766 81631 80414 79081 77568 75766 73315 70847
 3145.00 1.104E-05 98732 97373 95833 94203 92301 90009 87264 85643 83804 81667 80462 79121 77618 75815 73370 70897
 3155.00 1.094E-05 98720 97441 95978 94241 92322 90110 87386 85777 83949 81828 80631 79314 77815 76033 73601 71152
 3165.00 1.091E-05 98717 97342 95875 94225 92301 90027 87296 85683 83850 81732 80532 79212 77709 75921 73501 71045
 3175.00 1.084E-05 98708 97417 95941 94280 92343 90083 87362 85756 83930 81817 80627 79308 77823 76042 73616 71172
 3185.00 1.079E-05 98703 97312 95829 94161 92280 90028 87312 85709 83883 81779 80584 79277 77785 76015 73596 71158
 3195.00 1.073E-05 98695 97297 95899 94222 92274 90037 87325 85722 83905 81808 80615 79310 77829 76058 73653 71212
 3210.00 1.063E-05 98683 97366 95861 94262 92314 90085 87375 85786 83979 81900 80715 79417 77949 76190 73801 71373
 3230.00 1.052E-05 98669 97338 95913 94221 92319 90086 87386 85798 84002 81920 80751 79458 77994 76245 73859 71445
 3250.00 1.040E-05 98750 97404 95952 94298 92404 90183 87500 85913 84125 82058 80894 79606 78144 76404 74029 71615
 3270.00 1.028E-05 98735 97471 95963 94319 92432 90224 87549 85973 84193 82140 80982 79708 78259 76527 74163 71761
 3290.00 1.004E-05 98904 97689 96325 94781 92998 90886 88327 86813 85090 83108 81972 80717 79293 77580 75209 72799
 3310.00 1.004E-05 98755 97480 96046 94442 92580 90398 87769 86215 84452 82430 81285 80020 78586 76873 74532 72141
 3330.00 9.935E-06 98692 97383 95934 94303 92441 90257 87630 86090 84348 82345 81218 79970 78561 76870 74555 72179
 3350.00 9.846E-06 98730 97420 95978 94353 92484 90301 87670 86126 84379 82379 81251 80002 78600 76904 74589 72222
 3370.00 9.734E-06 98685 97391 95942 94319 92459 90292 87672 86141 84415 82433 81313 80090 78693 77008 74717 72355
 3390.00 9.616E-06 98669 97369 95934 94322 92471 90308 87718 86200 84484 82519 81416 80200 78817 77153 74875 72535
 3410.00 9.511E-06 98738 97445 96005 94396 92545 90390 87804 86290 84586 82631 81527 80318 78940 77289 75008 72674
 3430.00 9.432E-06 98707 97413 95982 94370 92525 90363 87776 86270 84563 82612 81510 80301 78923 77279 75011 72668
 3450.00 9.339E-06 98651 97366 95931 94325 92483 90331 87761 86251 84559 82611 81529 80319 78959 77310 75051 72727
 3470.00 9.237E-06 98733 97445 96016 94414 92584 90441 87875 86370 84681 82754 81661 80470 79106 77471 75219 72892
 3490.00 9.141E-06 98742 97462 96029 94432 92605 90472 87912 86413 84739 82814 81731 80538 79193 77563 75320 73001
 3510.00 9.049E-06 98663 97392 95966 94375 92552 90419 87877 86396 84728 82816 81744 80561 79224 77611 75378 73080
 3530.00 8.947E-06 98759 97485 96066 94479 92657 90533 87996 86521 84855 82955 81893 80720 79379 77769 75556 73254
 3550.00 8.861E-06 98691 97416 96005 94414 92597 90486 87958 86491 84844 82959 81898 80736 79404 77813 75601 73310
 3570.00 8.761E-06 98744 97477 96074 94487 92683 90572 88061 86600 84967 83096 82045 80881 79569 77971 75779 73496
 3590.00 8.674E-06 98755 97487 96080 94501 92702 90604 88091 86638 85013 83145 82096 80943 79640 78049 75859 73588
 3610.00 8.595E-06 98697 97440 96033 94462 92670 90576 88086 86632 85015 83153 82118 80966 79663 78080 75905 73636
 3630.00 8.508E-06 98719 97461 96063 94499 92701 90621 88141 86695 85073 83228 82193 81053 79748 78185 76011 73742
 3650.00 8.409E-06 98704 97455 96052 94494 92710 90629 88167 86740 85135 83316 82293 81163 79879 78321 76168 73909
 3670.00 8.322E-06 98738 97489 96095 94533 92754 90687 88236 86806 85220 83405 82384 81267 79981 78431 76292 74033
 3690.00 8.219E-06 98783 97530 96143 94586 92822 90765 88332 86921 85351 83562 82565 81445 80180 78647 76518 74279
 3710.00 8.140E-06 98784 97531 96155 94595 92838 90786 88354 86953 85381 83600 82604 81499 80233 78710 76585 74349
 3730.00 8.040E-06 98856 97662 96331 94838 93109 91107 88719 87338 85771 84005 83010 81903 80634 79092 76965 74714
 3750.00 7.899E-06 98899 97721 96417 94949 93265 91303 88986 87644 86125 84416 83441 82365 81124 79618 77516 75288
 3770.00 7.919E-06 98775 97525 96161 94621 92865 90832 88420 87031 85478 83723 82738 81639 80389 78874 76777 74555
 3790.00 7.841E-06 98750 97513 96136 94605 92858 90830 88433 87042 85499 83752 82783 81699 80449 78944 76852 74646
 3810.00 7.769E-06 98751 97516 96151 94620 92882 90874 88493 87115 85584 83846 82868 81787 80551 79045 76960 74746
 3830.00 7.701E-06 98727 97507 96143 94611 92884 90871 88495 87119 85599 83859 82885 81808 80587 79081 77003 74795
 3850.00 7.630E-06 98794 97562 96199 94679 92936 90931 88545 87182 85649 83919 82949 81874 80642 79148 77077 74875
 3870.00 7.549E-06 98768 97536 96172 94648 92913 90913 88555 87204 85693 83971 83018 81958 80739 79256 77189 75003
 3890.00 7.479E-06 98730 97500 96149 94638 92913 90921 88581 87231 85733 84022 83073 82016 80800 79329 77270 75077
 3910.00 7.409E-06 98785 97571 96221 94723 93009 91024 88703 87353 85855 84168 83210 82157 80942 79471 77406 75219
 3930.00 7.344E-06 98815 97603 96255 94744 93028 91040 88698 87364 85866 84164 83211 82162 80964 79493 77437 75259
 3950.00 7.266E-06 98816 97592 96243 94743 93022 91054 88728 87393 85907 84228 83292 82246 81049 79604 77567 75392
 3970.00 7.204E-06 98737 97515 96169 94670 92962 90991 88673 87354 85883 84217 83273 82246 81052 79609 77582 75416
 3990.00 7.118E-06 98834 97612 96277 94774 93074 91121 88817 87511 86049 84392 83464 82439 81273 79826 77817 75653
 4010.00 7.057E-06 98796 97605 96273 94799 93113 91172 88890 87587 86141 84498 83562 82542 81366 79935 77908 75755
 4030.00 7.001E-06 98800 97615 96286 94815 93130 91201 88916 87616 86173 84531 83602 82574 81403 79960 77946 75789
 4050.00 6.836E-06 98991 97894 96694 95319 93754 91940 89789 88546 87142 85562 84655 83645 82490 81071 79067 76902
 4070.00 6.873E-06 98763 97570 96261 94777 93103 91183 88928 87633 86192 84577 83661 82642 81478 80067 78074 75935
 4090.00 6.813E-06 98811 97608 96287 94804 93131 91208 88948 87656 86232 84618 83708 82695 81535 80126 78130 76002
 4110.00 6.755E-06 98771 97572 96255 94774 93101 91177 88942 87654 86232 84619 83716 82709 81554 80148 78164 76033
 4130.00 6.697E-06 98820 97626 96312 94834 93161 91250 88995 87726 86307 84695 83799 82783 81634 80230 78259 76124
 4150.00 6.630E-06 98824 97632 96335 94857 93213 91297 89080 87798 86395 84796 83906 82911 81765 80362 78386 76275
 4170.00 6.562E-06 98857 97684 96388 94941 93310 91420 89226 87961 86574 84989 84090 83100 81972 80570 78604 76471
 4190.00 6.508E-06 98817 97649 96343 94899 93254 91364 89167 87907 86509 84942 84050 83067 81930 80547 78580 76475
 4210.00 6.436E-06 98757 97592 96287 94842 93210 91346 89155 87927 86544 85006 84121 83157 82039 80671 78729 76631
 4230.00 6.404E-06 98829 97642 96330 94878 93239 91349 89163 87914 86524 84963 84072 83104 81964 80590 78638 76530
 4250.00 6.340E-06 98864 97681 96388 94921 93297 91420 89227 87997 86609 85063 84180 83218 82098 80726 78785 76672
 4270.00 6.291E-06 98808 97632 96328 94882 93244 91385 89207 87967 86600 85058 84184 83214 82101 80734 78795 76697
 4290.00 6.194E-06 98805 97611 96287 94801 93155 91266 89070 87827 86455 84905 84033 83048 81918 80530 78528 76300
 4310.00 6.100E-06 98836 97623 96311 94836 93180 91311 89131 87902 86541 85000 84131 83148 82016 80623 78590 76328
 4330.00 6.059E-06 98845 97656 96353 94917 93283 91434 89289 88067 86730 85196 84321 83364 82241 80871 78891 76729
 4350.00 5.952E-06 98790 97581 96253 94792 93145 91297 89147 87937 86593 85081 84207 83249 82124 80729 78696 76411
 4370.00 5.870E-06 98876 97717 96422 95009 93424 91601 89523 88330 87002 85503 84651 83697 82589 81210 79199 76951
 4390.00 5.841E-06 98887 97723 96439 95001 93409 91594 89488 88290 86954 85448 84592 83633 82520 81133 79130 76905
 4410.00 5.741E-06 98833 97631 96325 94862 93242 91395 89288 88086 86762 85264 84410 83470 82355 80944 78889 76537
 4430.00 5.708E-06 98861 97687 96391 94954 93360 91538 89436 88245 86931 85441 84583 83637 82533 81149 79135 76875
 4450.00 5.664E-06 98870 97705 96416 95004 93415 91596 89513 88330 87006 85505 84657 83704 82592 81215 79220 76942
 4470.00 5.575E-06 98852 97650 96341 94888 93274 91444 89345 88161 86870 85381 84538 83587 82475 81076 78996 76592
 4490.00 5.558E-06 98867 97679 96402 94980 93379 91580 89511 88323 87028 85534 84707 83753 82656 81288 79273 76988
 4510.00 5.503E-06 98892 97729 96456 95039 93458 91659 89588 88406 87098 85626 84790 83845 82737 81374 79357 77085
 4530.00 5.427E-06 98894 97697 96407 94970 93367 91579 89497 88336 87046 85572 84725 83785 82679 81279 79215 76820
 4550.00 5.406E-06 98890 97725 96430 95024 93433 91657 89604 88439 87162 85701 84869 83944 82834 81465 79430 77100
 4570.00 5.378E-06 98866 97713 96430 95017 93455 91670 89624 88472 87189 85720 84883 83953 82856 81499 79472 77148
 4590.00 5.300E-06 98906 97717 96434 95000 93415 91642 89585 88434 87151 85679 84849 83925 82811 81434 79358 76943
 4610.00 5.281E-06 98864 97709 96421 95020 93448 91687 89642 88506 87237 85779 84965 84037 82939 81575 79530 77201
 4630.00 5.234E-06 98892 97726 96465 95071 93504 91746 89740 88594 87333 85881 85059 84142 83053 81677 79633 77283
 4650.00 5.161E-06 99012 97946 96745 95427 93955 92288 90351 89246 88006 86592 85797 84867 83802 82426 80391 78008
 4670.00 5.151E-06 98971 97845 96603 95244 93729 92021 90041 88934 87692 86275 85459 84547 83460 82101 80062 77694
 4690.00 5.133E-06 98890 97721 96454 95071 93513 91779 89772 88642 87395 85954 85135 84220 83148 81765 79739 77401
 4710.00 5.102E-06 98863 97707 96433 95041 93473 91729 89710 88593 87338 85907 85084 84163 83085 81713 79694 77303
 4730.00 5.079E-06 98858 97716 96436 95058 93503 91770 89781 88640 87399 85982 85174 84249 83186 81827 79819 77496
 4750.00 5.029E-06 98867 97713 96441 95049 93518 91788 89799 88666 87433 86021 85206 84291 83217 81885 79877 77530
 4770.00 4.992E-06 98878 97716 96454 95072 93530 91807 89824 88702 87480 86058 85256 84355 83293 81931 79928 77604
 4790.00 4.963E-06 98892 97743 96474 95084 93552 91819 89845 88737 87508 86097 85291 84405 83337 82007 80012 77695
 4810.00 4.911E-06 98880 97719 96477 95093 93545 91835 89860 88760 87538 86133 85339 84423 83364 82020 80024 77683
 4830.00 4.892E-06 98855 97711 96464 95094 93561 91864 89902 88798 87572 86182 85384 84485 83442 82114 80131 77841
 4850.00 4.849E-06 98866 97731 96494 95133 93607 91916 89977 88884 87668 86286 85502 84595 83564 82244 80285 77995
 4870.00 4.811E-06 98878 97734 96487 95115 93598 91894 89961 88859 87653 86261 85471 84577 83538 82207 80233 77926
 4890.00 4.776E-06 98890 97760 96524 95163 93656 91960 90034 88945 87730 86348 85574 84694 83647 82328 80360 78078
 4910.00 4.743E-06 98883 97744 96521 95151 93654 91946 90027 88931 87729 86359 85579 84693 83660 82332 80371 78073
 4930.00 4.704E-06 98895 97768 96535 95196 93686 92007 90094 89009 87798 86437 85651 84758 83716 82419 80463 78189
 4950.00 4.669E-06 98886 97751 96530 95181 93682 92011 90105 89013 87835 86464 85693 84815 83765 82459 80510 78239
 4970.00 4.631E-06 98899 97797 96567 95249 93759 92097 90197 89117 87929 86569 85791 84928 83891 82596 80674 78428
 4990.00 4.608E-06 98893 97786 96571 95226 93728 92057 90169 89084 87912 86545 85764 84896 83854 82574 80621 78342
 5010.00 4.573E-06 98907 97813 96589 95255 93790 92128 90247 89176 87995 86661 85874 85021 83993 82703 80800 78570
 5030.00 4.540E-06 98921 97819 96608 95286 93811 92159 90286 89229 88040 86696 85947 85066 84053 82775 80859 78612
 5050.00 4.490E-06 98909 97817 96615 95301 93831 92205 90334 89287 88107 86771 86013 85145 84143 82851 80935 78686
 5070.00 4.464E-06 98947 97849 96640 95341 93884 92249 90367 89315 88150 86828 86066 85215 84185 82908 81004 78763
 5090.00 4.443E-06 98920 97839 96646 95318 93878 92235 90389 89332 88184 86856 86090 85235 84222 82939 81049 78798
 5110.00 4.398E-06 98909 97840 96635 95339 93906 92269 90427 89382 88222 86903 86153 85289 84288 83015 81105 78854
 5130.00 4.350E-06 99011 97977 96828 95586 94184 92621 90828 89816 88690 87379 86644 85793 84805 83540 81632 79425
 5150.00 4.335E-06 98939 97855 96678 95386 93956 92341 90519 89481 88351 87036 86275 85421 84429 83160 81269 79054
 5170.00 4.320E-06 98912 97824 96644 95347 93912 92315 90486 89468 88310 87014 86273 85417 84421 83171 81319 79120
 5190.00 4.276E-06 98901 97825 96632 95346 93920 92329 90505 89476 88354 87044 86296 85454 84471 83209 81314 79093
 5210.00 4.246E-06 98893 97833 96656 95360 93947 92369 90556 89520 88389 87094 86364 85516 84527 83255 81371 79133
 5230.00 4.214E-06 98956 97864 96701 95420 93996 92430 90626 89606 88491 87186 86450 85619 84623 83365 81490 79283
 5250.00 4.190E-06 98926 97852 96683 95418 94010 92411 90621 89618 88496 87208 86468 85632 84654 83413 81551 79356
 5270.00 4.166E-06 98968 97888 96735 95463 94047 92487 90687 89702 88574 87302 86558 85742 84758 83533 81685 79549
 5290.00 4.124E-06 98957 97890 96726 95466 94059 92507 90737 89719 88628 87342 86615 85766 84796 83560 81693 79510
 5310.00 4.104E-06 98928 97856 96711 95443 94030 92471 90692 89693 88596 87305 86574 85746 84771 83553 81676 79459
 5330.00 4.071E-06 98944 97888 96733 95480 94080 92533 90789 89781 88676 87423 86686 85876 84893 83665 81823 79661
 5350.00 4.048E-06 98962 97900 96739 95479 94096 92564 90786 89797 88710 87451 86709 85894 84931 83696 81868 79669
 5370.00 4.019E-06 98955 97910 96765 95521 94128 92585 90844 89848 88753 87509 86788 85967 84996 83777 81961 79796
 5390.00 3.994E-06 98948 97897 96770 95518 94141 92589 90861 89860 88783 87531 86805 86004 85028 83826 81998 79845
 5410.00 3.968E-06 98942 97908 96749 95514 94128 92591 90852 89869 88785 87550 86820 86013 85055 83846 82006 79864
 5430.00 3.931E-06 98932 97889 96744 95497 94149 92623 90893 89901 88832 87586 86874 86060 85118 83897 82066 79903
 5450.00 3.914E-06 98927 97879 96730 95503 94124 92616 90879 89908 88835 87583 86893 86076 85130 83929 82090 79944
 5470.00 3.884E-06 98970 97940 96807 95572 94207 92714 90989 90036 88955 87719 87024 86226 85273 84089 82286 80149
 5490.00 3.858E-06 98911 97875 96734 95490 94142 92639 90928 89969 88880 87662 86936 86133 85200 83981 82167 80016
 5510.00 3.838E-06 98906 97863 96743 95519 94164 92652 90933 89969 88900 87676 86972 86165 85227 84028 82204 80042
 5530.00 3.817E-06 98900 97852 96725 95520 94158 92664 90961 90018 88944 87739 87032 86246 85303 84097 82316 80194
 5550.00 3.782E-06 98916 97885 96748 95531 94183 92676 90984 90032 88974 87758 87044 86251 85325 84109 82311 80143
 5570.00 3.766E-06 98911 97876 96760 95539 94211 92724 91025 90069 89033 87812 87122 86325 85396 84201 82422 80297
 5590.00 3.732E-06 98955 97910 96811 95606 94266 92792 91131 90166 89121 87942 87245 86468 85531 84352 82583 80439
 5610.00 3.711E-06 98976 97952 96820 95608 94287 92805 91134 90191 89140 87955 87254 86473 85556 84371 82592 80490
 5630.00 3.686E-06 98942 97911 96799 95578 94249 92784 91129 90179 89121 87927 87249 86462 85540 84346 82583 80440
 5650.00 3.668E-06 98909 97901 96783 95583 94248 92775 91112 90185 89149 87950 87268 86478 85551 84378 82606 80507
 5670.00 3.645E-06 98903 97888 96790 95583 94266 92785 91111 90178 89136 87956 87270 86475 85569 84390 82634 80494
 5690.00 3.615E-06 98976 97953 96846 95657 94329 92891 91231 90290 89267 88077 87386 86611 85698 84537 82766 80664
 5710.00 3.597E-06 98971 97943 96858 95663 94329 92883 91243 90325 89269 88101 87406 86656 85738 84570 82819 80734
 5730.00 3.573E-06 98964 97957 96865 95662 94346 92891 91268 90344 89309 88133 87462 86678 85782 84607 82872 80772
 5750.00 3.549E-06 98986 97971 96872 95689 94393 92956 91322 90392 89377 88194 87518 86757 85855 84700 82953 80896
 5770.00 3.527E-06 98923 97930 96853 95662 94358 92912 91267 90360 89339 88177 87496 86731 85824 84661 82903 80805
 5790.00 3.505E-06 98973 97974 96890 95720 94408 92981 91384 90471 89444 88274 87618 86847 85963 84822 83110 81056
 5810.00 3.481E-06 98966 97960 96897 95720 94427 92991 91382 90463 89457 88279 87619 86843 85952 84803 83080 81011
 5830.00 3.460E-06 98988 97977 96908 95723 94451 93006 91387 90491 89480 88324 87659 86908 86012 84855 83150 81098
 5850.00 3.439E-06 99011 98023 96947 95784 94504 93079 91451 90550 89561 88398 87729 86973 86101 84967 83251 81186
 5870.00 3.414E-06 98946 97950 96895 95723 94435 93029 91418 90539 89514 88371 87698 86965 86057 84944 83216 81136
 5890.00 3.388E-06 99026 98052 97019 95868 94599 93211 91617 90732 89728 88607 87928 87190 86305 85183 83501 81464
 5910.00 3.353E-06 99105 98181 97197 96123 94900 93558 92037 91172 90188 89055 88428 87683 86788 85684 83984 81986
 5930.00 3.351E-06 99015 98060 96986 95852 94569 93196 91614 90719 89734 88571 87914 87168 86303 85169 83497 81468
 5950.00 3.327E-06 98948 97986 96934 95792 94530 93147 91584 90712 89720 88578 87947 87196 86324 85212 83529 81485
 5970.00 3.310E-06 99033 98066 97009 95861 94622 93233 91662 90755 89789 88671 88006 87251 86405 85287 83595 81601
 5990.00 3.289E-06 99027 98054 97020 95865 94618 93250 91669 90787 89815 88690 88051 87321 86440 85345 83673 81666
 6010.00 3.268E-06 99021 98072 97001 95869 94645 93268 91707 90820 89871 88739 88097 87362 86506 85404 83721 81732
 6030.00 3.248E-06 99046 98091 97044 95905 94674 93288 91749 90887 89901 88762 88147 87408 86546 85437 83775 81773
 6050.00 3.228E-06 99040 98048 97026 95880 94641 93278 91729 90861 89901 88786 88135 87392 86524 85440 83767 81753
 6070.00 3.207E-06 99033 98067 97007 95884 94668 93296 91768 90895 89928 88806 88182 87434 86592 85500 83817 81821
 6090.00 3.186E-06 99027 98085 97050 95920 94696 93346 91808 90960 89987 88889 88230 87508 86660 85562 83898 81921
 6110.00 3.163E-06 99052 98071 97060 95953 94720 93392 91843 90990 90041 88935 88302 87575 86721 85647 83971 81979
 6130.00 3.147E-06 99078 98125 97108 95996 94757 93422 91897 91039 90086 88974 88338 87607 86749 85669 84017 82046
 6150.00 3.129E-06 98945 98019 96964 95877 94663 93321 91787 90924 89965 88878 88239 87504 86673 85554 83893 81879
 6170.00 3.110E-06 98971 98039 97010 95916 94695 93376 91865 90997 90064 88971 88328 87621 86752 85691 84051 82090
 6190.00 3.091E-06 99029 98059 97056 95956 94727 93400 91912 91038 90100 89000 88386 87674 86800 85733 84083 82109
 6210.00 3.072E-06 99023 98079 97070 95964 94759 93457 91960 91113 90169 89063 88444 87728 86882 85807 84180 82227
 6230.00 3.048E-06 99081 98163 97146 96063 94882 93570 92060 91240 90289 89206 88583 87894 87041 85991 84383 82415
 6250.00 3.032E-06 99077 98153 97131 96042 94855 93536 92051 91227 90270 89182 88555 87863 87005 85950 84334 82388
 6270.00 3.014E-06 99005 98076 97047 95985 94791 93464 91971 91141 90212 89151 88520 87790 86961 85899 84273 82283
 6290.00 2.997E-06 99032 98098 97097 95996 94828 93493 92025 91191 90257 89156 88555 87855 87020 85953 84318 82349
 6310.00 2.977E-06 99059 98153 97145 96070 94894 93584 92106 91300 90359 89285 88680 87974 87135 86093 84481 82533
 6330.00 2.962E-06 99055 98143 97130 96050 94868 93585 92100 91290 90344 89264 88656 87947 87137 86057 84470 82512
 6350.00 2.943E-06 99049 98131 97146 96058 94903 93578 92117 91301 90384 89297 88685 88005 87156 86103 84506 82569
 6370.00 2.925E-06 99111 98188 97197 96137 94940 93675 92205 91385 90462 89402 88786 88103 87282 86222 84615 82701
 6390.00 2.907E-06 99037 98108 97145 96078 94909 93602 92157 91331 90402 89370 88751 88063 87238 86171 84589 82628
 6420.00 2.882E-06 99063 98161 97155 96114 94934 93650 92228 91395 90493 89417 88827 88133 87300 86260 84663 82755
 6460.00 2.846E-06 99086 98173 97189 96135 94975 93710 92270 91462 90548 89529 88897 88229 87421 86367 84786 82853
 6500.00 2.813E-06 99040 98116 97156 96090 94952 93708 92286 91468 90579 89549 88944 88269 87451 86420 84820 82936
 6540.00 2.781E-06 99065 98166 97195 96152 95002 93779 92341 91550 90651 89608 88997 88314 87522 86480 84898 83028
 6580.00 2.748E-06 99017 98108 97162 96143 95015 93741 92322 91521 90648 89592 89010 88319 87518 86499 84898 82969
 6620.00 2.716E-06 99080 98196 97239 96208 95103 93851 92452 91679 90758 89764 89138 88476 87666 86672 85088 83211
 6660.00 2.685E-06 99032 98138 97207 96164 95047 93818 92439 91620 90764 89721 89125 88454 87635 86629 85028 83128
 6700.00 2.654E-06 99020 98154 97212 96194 95064 93858 92464 91673 90806 89789 89186 88546 87717 86699 85154 83233
 6740.00 2.623E-06 99123 98246 97293 96264 95196 93976 92604 91803 90965 89935 89363 88677 87915 86885 85360 83454
 6780.00 2.593E-06 99074 98187 97262 96259 95141 93945 92595 91824 90937 89934 89356 88700 87890 86888 85345 83455
 6820.00 2.564E-06 99025 98167 97231 96256 95164 93955 92629 91849 90991 89977 89392 88729 87949 86934 85413 83502
 6860.00 2.535E-06 99093 98225 97318 96292 95227 94043 92702 91913 91045 90059 89507 88836 88047 87061 85523 83629
 6900.00 2.506E-06 99082 98244 97326 96329 95251 94094 92737 91979 91141 90144 89545 88907 88109 87111 85595 83719
 6940.00 2.478E-06 99072 98224 97337 96368 95278 94108 92776 92010 91162 90194 89629 88943 88176 87207 85674 83777
 6980.00 2.451E-06 99062 98205 97307 96328 95267 94125 92778 92044 91187 90208 89637 88984 88209 87189 85639 83762
 7020.00 2.423E-06 99092 98267 97359 96409 95336 94181 92860 92117 91292 90301 89723 89104 88320 87330 85803 83946
 7060.00 2.397E-06 99040 98206 97330 96370 95328 94159 92866 92115 91281 90321 89737 89111 88319 87359 85816 83938
 7100.00 2.371E-06 99072 98271 97385 96415 95361 94222 92914 92197 91354 90384 89836 89161 88402 87431 85913 84015
 7140.00 2.345E-06 99147 98294 97441 96461 95437 94286 93006 92239 91429 90448 89893 89254 88486 87505 86013 84136
 7180.00 2.320E-06 99095 98276 97414 96466 95431 94310 93017 92284 91466 90474 89914 89310 88534 87543 86034 84181
 7220.00 2.295E-06 99041 98257 97386 96427 95425 94292 93028 92288 91460 90545 89978 89325 88584 87625 86100 84227
 7260.00 2.270E-06 99075 98238 97401 96476 95463 94317 93084 92335 91542 90573 90044 89383 88634 87665 86167 84317
 7300.00 2.246E-06 99065 98264 97418 96483 95459 94346 93099 92386 91585 90606 90071 89448 88691 87756 86242 84372
 7340.00 2.222E-06 99145 98335 97480 96535 95545 94419 93159 92439 91674 90729 90144 89559 88794 87804 86319 84473
 7380.00 2.199E-06 99181 98363 97499 96589 95589 94498 93224 92542 91724 90769 90223 89586 88859 87904 86403 84584
 7420.00 2.176E-06 99127 98300 97472 96553 95542 94485 93244 92509 91728 90809 90257 89614 88879 87914 86443 84605
 7460.00 2.143E-06 99207 98460 97667 96827 95894 94820 93607 92954 92161 91227 90714 90107 89361 88381 86934 85114
 7500.00 2.124E-06 99200 98493 97693 96799 95857 94821 93597 92891 92137 91196 90678 90066 89313 88371 86864 85075
 7540.00 2.108E-06 99194 98387 97581 96679 95683 94639 93406 92695 91888 90987 90465 89848 89089 88140 86670 84867
 7580.00 2.087E-06 99185 98419 97604 96694 95736 94681 93436 92717 91950 91040 90513 89890 89123 88213 86727 84907
 7620.00 2.066E-06 99226 98451 97580 96709 95741 94676 93466 92740 91965 91046 90513 89932 89206 88238 86786 84947
 7660.00 2.045E-06 99218 98435 97604 96724 95795 94719 93496 92812 92029 91100 90562 89976 89242 88313 86846 84988
 7700.00 2.024E-06 99209 98419 97579 96739 95751 94713 93528 92836 92045 91156 90613 90020 89279 88340 86858 85079
 7740.00 2.004E-06 99202 98453 97605 96756 95808 94760 93563 92864 92116 91168 90669 90070 89321 88373 86926 85130
 7780.00 1.984E-06 99143 98387 97581 96724 95766 94708 93548 92843 92087 91179 90675 90071 89365 88407 86946 85131
 7820.00 1.964E-06 99134 98371 97607 96741 95774 94756 93585 92872 92108 91242 90733 90122 89409 88442 87016 85183
 7860.00 1.945E-06 99126 98406 97584 96710 95784 94756 93573 92905 92134 91260 90746 90129 89460 88483 87044 85244
 7900.00 1.926E-06 99117 98390 97612 96729 95794 94808 93614 92939 92212 91277 90758 90187 89460 88525 87072 85254
 7940.00 1.907E-06 99213 98479 97693 96801 95910 94861 93707 93026 92292 91400 90876 90246 89565 88621 87153 85370
 7980.00 1.888E-06 99206 98464 97669 96822 95922 94862 93697 93061 92320 91419 90890 90307 89619 88665 87235 85434
 8020.00 1.870E-06 99091 98396 97594 96738 95829 94866 93690 93048 92299 91390 90909 90321 89626 88663 87219 85401
 8060.00 1.851E-06 99298 98541 97785 96921 96002 95030 93841 93193 92437 91572 91032 90438 89735 88817 87358 85575
 8100.00 1.834E-06 99237 98528 97764 96892 96020 94984 93839 93184 92421 91549 91058 90458 89749 88822 87405 85605
 8140.00 1.816E-06 99174 98458 97687 96861 95980 94989 93833 93172 92456 91575 91079 90474 89758 88877 87390 85628
 8180.00 1.799E-06 99222 98499 97721 96887 95998 94997 93885 93218 92496 91606 91106 90550 89828 88938 87493 85659
 8220.00 1.782E-06 99158 98429 97699 96857 95960 95006 93883 93210 92480 91639 91134 90516 89843 88945 87486 85690
 8260.00 1.765E-06 99207 98527 97734 96941 96034 95071 93938 93258 92578 91671 91161 90595 89915 89009 87535 85779
 8300.00 1.748E-06 99314 98570 97826 97025 96110 95137 94050 93364 92620 91762 91304 90732 89989 89073 87643 85870
 8340.00 1.732E-06 99134 98441 97691 96882 96016 95035 93938 93303 92610 91744 91224 90647 89954 89030 87644 85797
 8380.00 1.716E-06 99184 98485 97727 96911 96037 95105 93998 93357 92599 91783 91259 90676 90035 89103 87646 85839
 8420.00 1.700E-06 99176 98471 97706 96941 96059 95118 94000 93353 92647 91824 91294 90706 90059 89118 87706 85882
 8460.00 1.684E-06 99287 98575 97862 97031 96200 95249 94121 93468 92755 91924 91449 90855 90143 89252 87827 86045
 8500.00 1.669E-06 99281 98562 97843 97064 96165 95207 94128 93469 92750 91911 91432 90833 90174 89275 87837 86040
 8540.00 1.654E-06 99214 98549 97823 97037 96191 95224 94135 93470 92745 91959 91415 90871 90206 89299 87848 86034
 8580.00 1.639E-06 99268 98597 97865 97071 96217 95241 94204 93533 92862 92007 91519 90909 90238 89323 87919 86150
 8620.00 1.624E-06 99261 98584 97845 97106 96244 95259 94212 93596 92857 92057 91564 90948 90271 89409 87993 86145
 8660.00 1.609E-06 99192 98508 97825 97017 96209 95277 94158 93536 92853 92045 91548 90988 90305 89372 87943 86203
 8700.00 1.595E-06 99248 98558 97868 97053 96238 95298 94232 93605 92915 92038 91599 91034 90345 89467 88025 86207
 8740.00 1.581E-06 99304 98608 97913 97090 96268 95319 94244 93612 92916 92094 91651 91082 90386 89500 88046 86275
 8780.00 1.567E-06 99170 98468 97766 97001 96171 95278 94193 93555 92916 92087 91576 91002 90364 89470 88003 86216
 8820.00 1.552E-06 99227 98582 97874 97101 96263 95361 94265 93686 92977 92139 91688 91108 90464 89562 88144 86340
 8860.00 1.539E-06 99220 98571 97856 97141 96296 95387 94282 93697 92982 92203 91683 91163 90448 89604 88174 86420
 8900.00 1.525E-06 99213 98557 97902 97115 96328 95410 94361 93705 93049 92197 91738 91213 90557 89639 88197 86426
 8940.00 1.512E-06 99339 98677 97950 97222 96362 95437 94378 93783 93122 92328 91799 91270 90608 89683 88294 86508
 8980.00 1.498E-06 99332 98732 97997 97263 96462 95527 94459 93858 93191 92390 91923 91322 90654 89786 88385 86582
 9020.00 1.486E-06 99260 98587 97914 97174 96366 95424 94415 93809 93136 92328 91857 91319 90646 89771 88358 86541
 9060.00 1.473E-06 99321 98710 98031 97284 96470 95519 94501 93890 93211 92396 91921 91378 90699 89817 88391 86626
 9100.00 1.460E-06 99315 98699 98014 97260 96438 95548 94521 93904 93219 92466 91986 91438 90753 89863 88425 86644
 9140.00 1.448E-06 99240 98619 97928 97169 96409 95511 94475 93854 93163 92403 91920 91367 90677 89848 88398 86671
 9180.00 1.436E-06 99304 98677 97981 97284 96448 95543 94499 93942 93245 92479 91992 91435 90738 89903 88510 86699
 9220.00 1.424E-06 99298 98666 97963 97261 96489 95576 94522 93961 93258 92486 91994 91433 90801 89888 88483 86728
 9260.00 1.412E-06 99221 98584 97875 97167 96388 95538 94476 93909 93201 92422 91997 91431 90793 89873 88527 86686
 9300.00 1.400E-06 99286 98714 98000 97286 96500 95643 94571 94000 93357 92571 92071 91500 90857 90000 88571 86786
 9340.00 1.388E-06 99352 98703 98055 97334 96542 95677 94669 94092 93372 92579 92147 91571 90922 90058 88617 86888
 9380.00 1.376E-06 99346 98692 98038 97311 96512 95640 94622 94041 93387 92587 92151 91642 90916 90044 88663 86919
 9420.00 1.365E-06 99267 98608 97949 97289 96484 95604 94579 94066 93407 92601 92161 91575 90916 90037 88645 86886
 9460.00 1.354E-06 99335 98744 98080 97341 96529 95716 94682 94092 93427 92688 92171 91654 90990 90103 88700 86928
 9500.00 1.343E-06 99330 98734 98064 97319 96575 95681 94713 94118 93448 92703 92182 91660 90990 90171 88757 86969
 9540.00 1.331E-06 99399 98798 98122 97446 96619 95793 94816 94215 93539 92787 92337 91736 91134 90233 88881 87077
 9580.00 1.321E-06 99319 98713 98032 97350 96593 95685 94701 94171 93490 92733 92279 91749 91067 90235 88796 87055
 9620.00 1.310E-06 99313 98702 98092 97405 96641 95802 94809 94198 93511 92748 92290 91756 91145 90229 88855 87099
 9660.00 1.299E-06 99384 98768 98075 97383 96613 95766 94765 94226 93610 92841 92379 91840 91147 90300 88915 87144
 9700.00 1.289E-06 99379 98759 98061 97440 96664 95811 94802 94259 93561 92785 92397 91854 91156 90303 88906 87122
 9740.00 1.278E-06 99374 98748 98122 97418 96714 95853 94836 94288 93662 92879 92410 91862 91236 90376 88967 87246
 9780.00 1.268E-06 99369 98817 98107 97476 96688 95899 94874 94322 93691 92902 92429 91956 91246 90379 89038 87224
 9820.00 1.258E-06 99444 98808 98172 97456 96741 95866 94913 94356 93720 92925 92448 91971 91335 90461 89030 87281
 9860.00 1.248E-06 99439 98798 98237 97516 96795 95913 94952 94391 93750 92949 92548 91987 91346 90465 89103 87340
 9900.00 1.238E-06 99435 98869 98223 97577 96769 95961 94992 94427 93780 92973 92569 92003 91357 90549 89176 87399
 9940.00 1.229E-06 99349 98698 98129 97396 96664 95850 94874 94304 93653 92921 92514 91945 91294 90480 89097 87307
 9980.00 1.219E-06 99426 98852 98195 97539 96801 95898 94996 94422 93765 93027 92535 92043 91386 90566 89171 87367
10020.00 1.209E-06 99421 98842 98263 97519 96857 96030 95037 94458 93797 93052 92639 92142 91481 90571 89247 87428
20000.00 3.097E-07 99645 99322 98967 98579 98127 97611 96965 96610 96125 95576 95221 94769 94220 93445 92121 90410
40000.00 7.781E-08 99782 99537 99267 98959 98612 98175 97635 97288 96864 96324 95977 95566 95026 94268 92983 91338
60000.00 3.448E-08 99797 99565 99304 99014 98666 98231 97709 97361 96926 96404 96056 95650 95099 94345 93097 91502
