EFF   4500.  GRAVITY 4.50000  SDSC GRID  [+0.0]   VTURB 2.0 KM/S    L/H 1.25                            
  wl(nm)    Inu(ergs/cm**2/s/hz/ster) for 17 mu in 1221 frequency intervals
            1.000   .900  .800  .700  .600  .500  .400  .300  .250  .200  .150  .125  .100  .075  .050  .025  .010
    9.09 0.000E+00     0     0     0     0     0     0     0     0     0     0     0     0     0     0     0     0
    9.35 0.000E+00     0     0     0     0     0     0     0     0     0     0     0     0     0     0     0     0
    9.61 0.000E+00     0     0     0     0     0     0     0     0     0     0     0     0     0     0     0     0
    9.77 0.000E+00     0     0     0     0     0     0     0     0     0     0     0     0     0     0     0     0
    9.96 0.000E+00     0     0     0     0     0     0     0     0     0     0     0     0     0     0     0     0
   10.20 0.000E+00     0     0     0     0     0     0     0     0     0     0     0     0     0     0     0     0
   10.38 0.000E+00     0     0     0     0     0     0     0     0     0     0     0     0     0     0     0     0
   10.56 0.000E+00     0     0     0     0     0     0     0     0     0     0     0     0     0     0     0     0
   10.77 0.000E+00     0     0     0     0     0     0     0     0     0     0     0     0     0     0     0     0
   11.04 0.000E+00     0     0     0     0     0     0     0     0     0     0     0     0     0     0     0     0
   11.40 0.000E+00     0     0     0     0     0     0     0     0     0     0     0     0     0     0     0     0
   11.78 0.000E+00     0     0     0     0     0     0     0     0     0     0     0     0     0     0     0     0
   12.13 0.000E+00     0     0     0     0     0     0     0     0     0     0     0     0     0     0     0     0
   12.48 0.000E+00     0     0     0     0     0     0     0     0     0     0     0     0     0     0     0     0
   12.71 0.000E+00     0     0     0     0     0     0     0     0     0     0     0     0     0     0     0     0
   12.84 0.000E+00     0     0     0     0     0     0     0     0     0     0     0     0     0     0     0     0
   13.05 0.000E+00     0     0     0     0     0     0     0     0     0     0     0     0     0     0     0     0
   13.24 0.000E+00     0     0     0     0     0     0     0     0     0     0     0     0     0     0     0     0
   13.39 0.000E+00     0     0     0     0     0     0     0     0     0     0     0     0     0     0     0     0
   13.66 0.000E+00     0     0     0     0     0     0     0     0     0     0     0     0     0     0     0     0
   13.98 0.000E+00     0     0     0     0     0     0     0     0     0     0     0     0     0     0     0     0
   14.33 0.000E+00     0     0     0     0     0     0     0     0     0     0     0     0     0     0     0     0
   14.72 0.000E+00     0     0     0     0     0     0     0     0     0     0     0     0     0     0     0     0
   15.10 0.000E+00     0     0     0     0     0     0     0     0     0     0     0     0     0     0     0     0
   15.52 0.000E+00     0     0     0     0     0     0     0     0     0     0     0     0     0     0     0     0
   15.88 0.000E+00     0     0     0     0     0     0     0     0     0     0     0     0     0     0     0     0
   16.20 0.000E+00     0     0     0     0     0     0     0     0     0     0     0     0     0     0     0     0
   16.60 0.000E+00     0     0     0     0     0     0     0     0     0     0     0     0     0     0     0     0
   17.03 0.000E+00     0     0     0     0     0     0     0     0     0     0     0     0     0     0     0     0
   17.34 0.000E+00     0     0     0     0     0     0     0     0     0     0     0     0     0     0     0     0
   17.68 0.000E+00     0     0     0     0     0     0     0     0     0     0     0     0     0     0     0     0
   18.02 0.000E+00     0     0     0     0     0     0     0     0     0     0     0     0     0     0     0     0
   18.17 0.000E+00     0     0     0     0     0     0     0     0     0     0     0     0     0     0     0     0
   18.61 0.000E+00     0     0     0     0     0     0     0     0     0     0     0     0     0     0     0     0
   19.10 0.000E+00     0     0     0     0     0     0     0     0     0     0     0     0     0     0     0     0
   19.39 0.000E+00     0     0     0     0     0     0     0     0     0     0     0     0     0     0     0     0
   19.84 0.000E+00     0     0     0     0     0     0     0     0     0     0     0     0     0     0     0     0
   20.18 0.000E+00     0     0     0     0     0     0     0     0     0     0     0     0     0     0     0     0
   20.50 0.000E+00     0     0     0     0     0     0     0     0     0     0     0     0     0     0     0     0
   21.05 0.000E+00     0     0     0     0     0     0     0     0     0     0     0     0     0     0     0     0
   21.62 0.000E+00     0     0     0     0     0     0     0     0     0     0     0     0     0     0     0     0
   21.98 0.000E+00     0     0     0     0     0     0     0     0     0     0     0     0     0     0     0     0
   22.30 0.000E+00     0     0     0     0     0     0     0     0     0     0     0     0     0     0     0     0
   22.68 0.000E+00     0     0     0     0     0     0     0     0     0     0     0     0     0     0     0     0
   23.00 0.000E+00     0     0     0     0     0     0     0     0     0     0     0     0     0     0     0     0
   23.40 0.000E+00     0     0     0     0     0     0     0     0     0     0     0     0     0     0     0     0
   24.00 0.000E+00     0     0     0     0     0     0     0     0     0     0     0     0     0     0     0     0
   24.65 0.000E+00     0     0     0     0     0     0     0     0     0     0     0     0     0     0     0     0
   25.24 0.000E+00     0     0     0     0     0     0     0     0     0     0     0     0     0     0     0     0
   25.68 0.000E+00     0     0     0     0     0     0     0     0     0     0     0     0     0     0     0     0
   26.00 0.000E+00     0     0     0     0     0     0     0     0     0     0     0     0     0     0     0     0
   26.40 0.000E+00     0     0     0     0     0     0     0     0     0     0     0     0     0     0     0     0
   26.85 0.000E+00     0     0     0     0     0     0     0     0     0     0     0     0     0     0     0     0
   27.35 0.000E+00     0     0     0     0     0     0     0     0     0     0     0     0     0     0     0     0
   27.85 0.000E+00     0     0     0     0     0     0     0     0     0     0     0     0     0     0     0     0
   28.40 0.000E+00     0     0     0     0     0     0     0     0     0     0     0     0     0     0     0     0
   29.00 0.000E+00     0     0     0     0     0     0     0     0     0     0     0     0     0     0     0     0
   29.60 0.000E+00     0     0     0     0     0     0     0     0     0     0     0     0     0     0     0     0
   30.10 0.000E+00     0     0     0     0     0     0     0     0     0     0     0     0     0     0     0     0
   30.80 0.000E+00     0     0     0     0     0     0     0     0     0     0     0     0     0     0     0     0
   31.80 0.000E+00     0     0     0     0     0     0     0     0     0     0     0     0     0     0     0     0
   32.80 0.000E+00     0     0     0     0     0     0     0     0     0     0     0     0     0     0     0     0
   33.80 0.000E+00     0     0     0     0     0     0     0     0     0     0     0     0     0     0     0     0
   34.80 0.000E+00     0     0     0     0     0     0     0     0     0     0     0     0     0     0     0     0
   35.70 0.000E+00     0     0     0     0     0     0     0     0     0     0     0     0     0     0     0     0
   36.60 0.000E+00     0     0     0     0     0     0     0     0     0     0     0     0     0     0     0     0
   37.50 0.000E+00     0     0     0     0     0     0     0     0     0     0     0     0     0     0     0     0
   38.50 0.000E+00     0     0     0     0     0     0     0     0     0     0     0     0     0     0     0     0
   39.50 0.000E+00     0     0     0     0     0     0     0     0     0     0     0     0     0     0     0     0
   40.50 0.000E+00     0     0     0     0     0     0     0     0     0     0     0     0     0     0     0     0
   41.40 0.000E+00     0     0     0     0     0     0     0     0     0     0     0     0     0     0     0     0
   42.20 0.000E+00     0     0     0     0     0     0     0     0     0     0     0     0     0     0     0     0
   43.00 0.000E+00     0     0     0     0     0     0     0     0     0     0     0     0     0     0     0     0
   44.10 0.000E+00     0     0     0     0     0     0     0     0     0     0     0     0     0     0     0     0
   45.10 0.000E+00     0     0     0     0     0     0     0     0     0     0     0     0     0     0     0     0
   46.00 0.000E+00     0     0     0     0     0     0     0     0     0     0     0     0     0     0     0     0
   47.00 0.000E+00     0     0     0     0     0     0     0     0     0     0     0     0     0     0     0     0
   48.00 0.000E+00     0     0     0     0     0     0     0     0     0     0     0     0     0     0     0     0
   49.00 0.000E+00     0     0     0     0     0     0     0     0     0     0     0     0     0     0     0     0
   50.00 0.000E+00     0     0     0     0     0     0     0     0     0     0     0     0     0     0     0     0
   50.60 0.000E+00     0     0     0     0     0     0     0     0     0     0     0     0     0     0     0     0
   51.20 0.000E+00     0     0     0     0     0     0     0     0     0     0     0     0     0     0     0     0
   52.00 0.000E+00     0     0     0     0     0     0     0     0     0     0     0     0     0     0     0     0
   53.00 0.000E+00     0     0     0     0     0     0     0     0     0     0     0     0     0     0     0     0
   54.00 0.000E+00     0     0     0     0     0     0     0     0     0     0     0     0     0     0     0     0
   55.00 0.000E+00     0     0     0     0     0     0     0     0     0     0     0     0     0     0     0     0
   56.00 0.000E+00     0     0     0     0     0     0     0     0     0     0     0     0     0     0     0     0
   57.00 0.000E+00     0     0     0     0     0     0     0     0     0     0     0     0     0     0     0     0
   58.00 0.000E+00     0     0     0     0     0     0     0     0     0     0     0     0     0     0     0     0
   59.00 0.000E+00     0     0     0     0     0     0     0     0     0     0     0     0     0     0     0     0
   60.00 0.000E+00     0     0     0     0     0     0     0     0     0     0     0     0     0     0     0     0
   61.00 0.000E+00     0     0     0     0     0     0     0     0     0     0     0     0     0     0     0     0
   62.00 0.000E+00     0     0     0     0     0     0     0     0     0     0     0     0     0     0     0     0
   63.00 0.000E+00     0     0     0     0     0     0     0     0     0     0     0     0     0     0     0     0
   64.00 0.000E+00     0     0     0     0     0     0     0     0     0     0     0     0     0     0     0     0
   65.00 0.000E+00     0     0     0     0     0     0     0     0     0     0     0     0     0     0     0     0
   65.80 0.000E+00     0     0     0     0     0     0     0     0     0     0     0     0     0     0     0     0
   66.50 0.000E+00     0     0     0     0     0     0     0     0     0     0     0     0     0     0     0     0
   67.50 0.000E+00     0     0     0     0     0     0     0     0     0     0     0     0     0     0     0     0
   68.50 0.000E+00     0     0     0     0     0     0     0     0     0     0     0     0     0     0     0     0
   69.50 0.000E+00     0     0     0     0     0     0     0     0     0     0     0     0     0     0     0     0
   70.50 0.000E+00     0     0     0     0     0     0     0     0     0     0     0     0     0     0     0     0
   71.60 0.000E+00     0     0     0     0     0     0     0     0     0     0     0     0     0     0     0     0
   72.60 0.000E+00     0     0     0     0     0     0     0     0     0     0     0     0     0     0     0     0
   73.50 0.000E+00     0     0     0     0     0     0     0     0     0     0     0     0     0     0     0     0
   74.50 0.000E+00     0     0     0     0     0     0     0     0     0     0     0     0     0     0     0     0
   75.50 0.000E+00     0     0     0     0     0     0     0     0     0     0     0     0     0     0     0     0
   76.50 0.000E+00     0     0     0     0     0     0     0     0     0     0     0     0     0     0     0     0
   77.50 0.000E+00     0     0     0     0     0     0     0     0     0     0     0     0     0     0     0     0
   78.50 0.000E+00     0     0     0     0     0     0     0     0     0     0     0     0     0     0     0     0
   79.50 0.000E+00     0     0     0     0     0     0     0     0     0     0     0     0     0     0     0     0
   80.50 0.000E+00     0     0     0     0     0     0     0     0     0     0     0     0     0     0     0     0
   81.50 0.000E+00     0     0     0     0     0     0     0     0     0     0     0     0     0     0     0     0
   82.50 0.000E+00     0     0     0     0     0     0     0     0     0     0     0     0     0     0     0     0
   83.50 0.000E+00     0     0     0     0     0     0     0     0     0     0     0     0     0     0     0     0
   84.50 0.000E+00     0     0     0     0     0     0     0     0     0     0     0     0     0     0     0     0
   85.50 0.000E+00     0     0     0     0     0     0     0     0     0     0     0     0     0     0     0     0
   86.50 0.000E+00     0     0     0     0     0     0     0     0     0     0     0     0     0     0     0     0
   87.50 0.000E+00     0     0     0     0     0     0     0     0     0     0     0     0     0     0     0     0
   88.50 0.000E+00     0     0     0     0     0     0     0     0     0     0     0     0     0     0     0     0
   89.50 0.000E+00     0     0     0     0     0     0     0     0     0     0     0     0     0     0     0     0
   90.50 0.000E+00     0     0     0     0     0     0     0     0     0     0     0     0     0     0     0     0
   91.50 0.000E+00     0     0     0     0     0     0     0     0     0     0     0     0     0     0     0     0
   92.50 4.329E-24 83206 68053 54562 42781 32756 24532 18145 15666 13680 12199 11656 11250 10979 10843 10806 10802
   93.50 6.829E-24 83101 67931 54503 42861 33021 25011 18875 16503 14630 13246 12746 12374 12131 12009 11974 11968
   94.50 1.012E-23 83597 68864 55810 44447 34812 26937 20870 18528 16650 15267 14763 14377 14130 13992 13962 13953
   95.50 1.210E-23 84545 70694 58430 47777 38777 31471 25893 23769 22099 20901 20479 20174 19992 19909 19884 19884
   96.50 2.597E-23 83905 69426 56604 45437 35953 28225 22280 19996 18186 16862 16384 16034 15811 15703 15672 15668
   97.50 2.874E-23 85491 72373 60752 50592 41962 34899 29468 27390 25759 24586 24175 23883 23706 23626 23605 23601
   98.50 4.856E-23 85297 72035 60276 50041 41351 34267 28851 26792 25185 24032 23641 23353 23188 23105 23085 23085
   99.50 7.999E-23 85323 72084 60308 50031 41305 34179 28716 26628 25003 23853 23453 23178 23015 22940 22928 22915
  100.50 1.089E-22 86272 73857 62782 53085 44812 38026 32801 30799 29238 28136 27759 27493 27337 27273 27254 27245
  101.50 1.590E-22 86667 74591 63836 54484 46509 40000 35025 33138 31686 30667 30327 30101 29975 29925 29912 29912
  102.50 2.146E-22 87558 76328 66309 57596 50186 44189 39655 37968 36682 35811 35531 35349 35247 35210 35196 35186
  103.50 5.437E-22 85727 72687 60953 50561 41585 34100 28251 25970 24186 22899 22457 22145 21979 21905 21887 21887
  104.50 7.540E-22 86353 73873 62586 52560 43859 36592 30875 28647 26883 25610 25172 24867 24682 24615 24602 24602
  105.50 8.502E-22 87873 76782 66773 57904 50247 43872 38908 37003 35509 34474 34121 33898 33769 33721 33710 33710
  106.50 1.950E-21 86308 73744 62256 52000 43051 35477 29431 27046 25123 23723 23226 22877 22667 22579 22559 22554
  107.50 2.784E-21 86674 74389 63182 53161 44361 36889 30891 28517 26609 25205 24709 24353 24138 24045 24023 24016
  108.50 5.040E-21 86071 73194 61468 50933 41667 33770 27421 24901 22837 21310 20774 20377 20139 20040 20020 20020
  109.50 6.876E-21 86533 74084 62696 52429 43368 35646 29378 26862 24825 23298 22746 22353 22106 21990 21975 21960
  110.50 9.281E-21 87027 74981 63937 53960 45124 37561 31419 28952 26937 25439 24911 24523 24297 24189 24168 24168
  111.50 1.242E-20 87440 75733 65024 55354 46812 39501 33583 31216 29291 27866 27351 26989 26755 26659 26634 26626
  112.50 2.632E-20 86360 73632 61930 51292 41793 33564 26797 24035 21752 20008 19366 18891 18590 18454 18423 18419
  113.50 4.458E-20 86115 73149 61148 50202 40377 31830 24742 21824 19399 17539 16848 16337 16012 15861 15828 15823
  114.50 7.029E-20 86058 72998 60891 49794 39821 31100 23816 20800 18281 16318 15593 15052 14696 14540 14497 14497
  115.50 9.939E-20 86166 73196 61143 50086 40135 31402 24097 21069 18523 16551 15816 15263 14911 14750 14710 14710
  116.50 1.291E-19 86445 73796 61983 51123 41317 32696 25453 22448 19923 17963 17227 16677 16328 16174 16143 16135
  117.50 1.949E-19 86403 73576 61621 50605 40662 31914 24572 21519 18964 16983 16239 15690 15341 15182 15151 15146
  118.50 2.424E-19 86634 74010 62294 51485 41749 33185 26035 23086 20635 18771 18086 17595 17290 17162 17137 17133
  119.50 2.799E-19 86960 74670 63273 52840 43444 35259 28535 25820 23616 22001 21440 21058 20840 20761 20747 20743
  120.50 2.362E-19 88103 77138 67062 58044 50212 43649 38679 36837 35487 34632 34390 34246 34187 34170 34166 34162
  121.50 1.156E-19 99135 98443 97837 97491 97145 96972 96886 96799 96799 96713 96713 96713 96626 96626 96626 96626
  122.50 3.844E-19 88996 78824 69537 61264 54110 48205 43783 42196 41025 40349 40140 40036 39984 39984 39984 39984
  123.50 1.049E-18 86845 74452 62927 52336 42822 34538 27731 24995 22803 21220 20686 20334 20153 20086 20076 20076
  124.50 1.550E-18 86839 74452 62826 52135 42458 33968 26897 24013 21645 19890 19277 18852 18613 18523 18510 18503
  125.50 2.122E-18 86946 74599 63054 52403 42700 34166 27012 24067 21635 19812 19161 18699 18435 18332 18313 18313
  126.50 2.723E-18 86926 74624 63092 52479 42894 34491 27506 24657 22328 20602 20000 19578 19339 19247 19232 19232
  127.50 3.688E-18 87148 75000 63612 53037 43438 34951 27820 24875 22432 20591 19930 19460 19184 19073 19054 19051
  128.50 3.904E-18 87577 75871 64959 54918 45902 38038 31557 28919 26793 25246 24703 24326 24114 24029 24016 24014
  129.50 4.947E-18 87932 76531 65878 56054 47140 39337 32848 30220 28057 26460 25894 25510 25288 25207 25187 25187
  130.50 6.218E-18 87922 76536 65954 56224 47491 39868 33628 31119 29093 27613 27115 26777 26584 26520 26504 26504
  131.50 7.865E-18 88125 76936 66497 56910 48277 40750 34584 32104 30108 28671 28175 27845 27667 27603 27591 27591
  132.50 9.028E-18 88702 78079 68177 59094 50919 43830 38015 35700 33828 32499 32045 31746 31580 31524 31513 31513
  133.50 1.037E-17 89392 79383 70068 61524 53867 47232 41823 39672 37956 36721 36316 36037 35882 35834 35824 35824
  134.50 1.406E-17 89260 79090 69609 60889 53030 46188 40583 38336 36543 35270 34844 34566 34417 34367 34360 34360
  135.50 1.820E-17 89121 78901 69341 60604 52742 45929 40390 38198 36456 35231 34830 34566 34429 34385 34379 34379
  136.50 2.090E-17 89809 80239 71292 63110 55742 49378 44182 42134 40517 39388 39019 38785 38665 38627 38622 38622
  137.50 2.350E-17 90511 81574 73277 65745 59021 53277 48723 46936 45617 44681 44426 44255 44170 44128 44128 44128
  138.50 2.869E-17 90938 82433 74521 67271 60823 55281 50819 49111 47752 46846 46567 46392 46323 46288 46288 46288
  139.50 3.395E-17 91458 83446 75994 69219 63211 58056 53962 52401 51193 50398 50162 50015 49926 49897 49897 49897
  140.50 4.583E-17 91032 82610 74776 67598 61204 55728 51364 49662 48374 47502 47240 47065 47000 46978 46978 46978
  141.50 5.831E-17 90979 82507 74618 67398 60967 55445 51055 49374 48088 47247 47007 46853 46784 46767 46750 46750
  142.50 6.918E-17 91327 83203 75672 68820 62749 57603 53556 52038 50896 50159 49942 49812 49769 49740 49740 49740
  143.50 9.368E-17 90980 82472 74541 67261 60749 55135 50651 48911 47588 46712 46445 46296 46221 46200 46200 46200
  144.20 1.286E-16 89969 80482 71571 63398 56042 49689 44565 42574 41050 40031 39720 39541 39456 39440 39432 39432
  144.70 1.173E-16 91304 83086 75422 68406 62140 56760 52498 50870 49642 48841 48602 48457 48397 48380 48372 48372
  145.50 1.398E-16 91202 82904 75250 68240 62003 56688 52504 50916 49721 48941 48712 48577 48519 48498 48491 48491
  146.50 2.029E-16 90389 81272 72745 64860 57762 51602 46629 44692 43199 42203 41897 41720 41636 41617 41617 41617
  147.50 2.520E-16 90437 81389 72857 65000 57897 51706 46706 44762 43254 42222 41905 41706 41627 41627 41627 41627
  148.50 2.782E-16 91086 82638 74766 67541 61035 55428 50971 49281 47987 47124 46873 46729 46693 46657 46657 46657
  149.50 3.964E-16 90262 81029 72351 64304 57064 50732 45610 43592 42053 41019 40716 40515 40439 40414 40414 40414
  150.50 5.385E-16 89824 80130 70975 62470 54745 47967 42396 40204 38477 37307 36955 36732 36639 36620 36602 36602
  151.20 3.905E-16 92830 86095 79846 74161 69117 64840 61460 60205 59257 58643 58464 58361 58310 58284 58284 58284
  151.70 5.290E-16 91172 82836 75028 67864 61456 55992 51664 50038 48828 48053 47826 47694 47637 47637 47618 47618
  152.50 1.185E-15 88439 77426 67030 57333 48447 40523 33797 30970 28599 26751 26051 25527 25190 25030 24987 24987
  153.50 1.860E-15 87634 75806 64677 54355 44860 36398 29167 26118 23522 21468 20677 20075 19677 19478 19430 19430
  154.50 1.385E-15 89242 78989 69451 60599 52556 45451 39466 36975 34881 33264 32657 32202 31913 31776 31747 31747
  155.50 2.312E-15 87933 76471 65701 55753 46713 38698 31916 29083 26696 24836 24135 23612 23274 23119 23088 23084
  156.50 2.164E-15 88725 78096 68161 59011 50739 43447 37375 34875 32805 31229 30656 30240 29986 29875 29857 29852
  157.50 5.282E-15 87221 75047 63518 52764 42863 33964 26240 22927 20030 17649 16681 15888 15293 14928 14792 14784
  158.50 5.323E-15 87394 75427 64174 53692 44092 35525 28180 25061 22356 20158 19294 18591 18080 17776 17669 17663
  159.50 5.091E-15 87625 75958 65036 54979 45885 37851 31114 28305 25928 24082 23355 22805 22432 22235 22176 22176
  160.50 5.193E-15 88138 76969 66532 56923 48257 40632 34277 31658 29443 27749 27113 26613 26285 26112 26074 26054
  161.50 5.235E-15 88596 77899 67966 58873 50735 43668 37880 35530 33620 32168 31652 31270 31041 30926 30907 30907
  162.50 5.196E-15 89473 79619 70516 62221 54811 48441 43264 41186 39492 38241 37798 37471 37259 37182 37163 37163
  163.50 6.880E-15 88866 78445 68808 60029 52195 45451 39942 37733 35930 34593 34099 33750 33517 33430 33401 33401
  164.50 9.374E-15 88372 77459 67325 58054 49733 42501 36537 34105 32089 30553 29987 29560 29283 29155 29123 29123
  165.50 7.628E-15 90207 81057 72614 64958 58167 52360 47666 45818 44337 43262 42895 42632 42475 42410 42410 42410
  166.50 1.285E-14 88716 78132 68226 59121 50903 43681 37642 35144 33043 31409 30786 30304 29984 29821 29774 29774
  167.20 1.059E-14 90246 81105 72606 64825 57856 51794 46789 44750 43059 41766 41294 40935 40699 40595 40567 40567
  167.70 1.770E-14 88192 77006 66667 57119 48554 41028 34729 32107 29904 28164 27492 26972 26610 26418 26362 26362
  168.50 2.417E-14 87795 76252 65453 55482 46421 38378 31560 28680 26218 24237 23451 22822 22362 22094 22007 22002
  169.50 3.515E-14 87568 75761 64637 54253 44723 36159 28791 25624 22868 20589 19661 18896 18313 17943 17795 17784
  170.50 3.766E-14 87812 76208 65295 55125 45805 37467 30271 27164 24469 22236 21325 20571 19995 19626 19480 19469
  171.50 3.995E-14 88010 76596 65882 55920 46783 38673 31690 28711 26133 24008 23151 22451 21927 21605 21487 21479
  172.50 5.618E-14 87611 75828 64721 54361 44838 36294 28907 25739 22962 20666 19740 18957 18370 17996 17853 17853
  173.50 6.603E-14 87687 75965 64895 54536 45010 36438 29002 25791 22990 20657 19703 18900 18295 17886 17719 17704
  174.50 9.485E-14 87275 75140 63658 52905 42994 34054 26273 22899 19947 17470 16458 15604 14960 14539 14370 14349
  175.50 9.581E-14 87444 75493 64221 53710 44046 35362 27836 24590 21751 19403 18443 17650 17044 16668 16512 16501
  176.50 1.319E-13 87566 75663 64329 53654 43730 34693 26725 23230 20121 17483 16376 15428 14685 14170 13935 13912
  177.50 1.081E-13 87872 76355 65486 55338 46022 37650 30416 27308 24598 22368 21452 20703 20139 19787 19648 19639
  178.50 2.292E-13 87391 75262 63656 52661 42421 33010 24642 20934 17613 14756 13538 12491 11645 11043 10750 10716
  179.50 1.857E-13 87561 75714 64405 53829 44033 35159 27399 24023 21045 18541 17496 16618 15934 15471 15267 15250
  180.50 3.452E-13 87601 75637 64108 53129 42758 33169 24534 20660 17155 14093 12764 11602 10634  9913  9519  9461
  181.50 2.280E-13 87895 76272 65263 54868 45219 36447 28746 25373 22386 19851 18789 17886 17171 16684 16465 16447
  182.50 3.961E-13 87680 75764 64302 53421 43196 33754 25297 21530 18129 15181 13911 12805 11901 11245 10914 10876
  183.50 3.383E-13 87733 75939 64706 54124 44251 35294 27378 23902 20816 18185 17077 16131 15374 14854 14611 14588
  184.50 4.736E-13 88070 76499 65351 54688 44616 35241 26753 22952 19481 16448 15133 13982 13030 12335 11974 11932
  185.50 3.669E-13 88117 76697 65822 55574 46062 37367 29736 26372 23401 20889 19842 18956 18267 17803 17602 17585
  186.50 6.701E-13 87987 76317 65080 54320 44158 34696 26116 22265 18743 15669 14322 13144 12164 11439 11048 10995
  187.50 6.074E-13 88014 76441 65344 54807 44896 35775 27609 23971 20711 17879 16661 15614 14761 14150 13844 13810
  188.50 7.877E-13 88054 76476 65329 54665 44598 35255 26800 23004 19563 16555 15260 14117 13190 12509 12159 12118
  189.50 9.970E-13 87834 76058 64714 53902 43681 34213 25667 21825 18345 15316 14002 12869 11936 11254 10913 10873
  190.50 1.039E-12 88046 76468 65303 54629 44524 35140 26651 22830 19365 16333 15024 13869 12926 12233 11877 11838
  191.50 1.552E-12 88015 76353 65013 54117 43737 34008 25116 21063 17358 14072 12622 11340 10271  9465  9034  8982
  192.50 1.244E-12 88103 76543 65418 54783 44743 35426 27026 23256 19839 16881 15603 14502 13609 12982 12693 12661
  193.50 8.790E-13 88692 77782 67315 57372 48055 39511 31934 28601 25666 23208 22196 21377 20751 20375 20239 20228
  194.50 1.798E-12 88209 76752 65628 54978 44828 35323 26646 22714 19116 15945 14555 13337 12330 11585 11207 11168
  195.50 2.618E-12 88273 76776 65623 54775 44423 34637 25592 21436 17597 14156 12624 11257 10095  9206  8713  8644
  196.70 2.805E-12 88164 76613 65383 54581 44242 34535 25611 21533 17783 14446 12977 11676 10585  9775  9344  9291
  197.60 3.328E-12 88311 76893 65745 54958 44591 34796 25736 21569 17710 14255 12716 11340 10168  9273  8771  8699
  198.40 4.253E-12 88455 77075 65953 55114 44674 34728 25441 21138 17127 13492 11860 10383  9111  8121  7552  7470
  199.50 3.721E-12 88417 77103 66058 55361 45095 35394 26418 22292 18479 15066 13550 12201 11059 10199  9731  9672
  200.50 4.323E-12 88503 77215 66181 55494 45200 35438 26371 22200 18328 14848 13301 11915 10740  9852  9378  9322
  201.50 4.913E-12 88459 77142 66090 55363 45064 35274 26216 22023 18150 14665 13116 11734 10564  9687  9225  9172
  202.50 4.435E-12 88771 77745 66967 56483 46404 36843 27959 23856 20061 16652 15139 13790 12658 11817 11389 11344
  203.50 5.722E-12 88518 77263 66253 55592 45351 35617 26617 22457 18595 15143 13607 12242 11099 10260  9850  9810
  204.50 6.001E-12 88469 77170 66156 55507 45309 35644 26729 22630 18864 15487 14004 12700 11618 10840 10462 10423
  205.50 7.275E-12 88564 77333 66364 55698 45430 35684 26612 22405 18515 15010 13457 12071 10907 10049  9616  9571
  206.50 6.784E-12 88561 77373 66480 55940 45828 36277 27447 23393 19664 16333 14873 13589 12537 11790 11442 11409
  207.40 6.430E-12 88585 77449 66625 56190 46236 36858 28258 24339 20762 17621 16267 15092 14156 13521 13250 13229
  207.80 1.216E-11 88816 77706 66809 56151 45798 35855 26480 22081 17936 14137 12401 10814  9416  8265  7498  7316
  208.50 1.584E-11 89015 78093 67298 56679 46294 36231 26641 22096 17771 13744 11881 10152  8586  7266  6319  6057
  209.50 1.731E-11 89197 78452 67764 57227 46875 36805 27158 22565 18186 14096 12201 10433  8833  7470  6464  6158
  210.50 1.563E-11 88996 78119 67306 56750 46449 36513 27102 22674 18490 14626 12860 11228  9782  8580  7742  7518
  211.50 1.533E-11 88715 77626 66732 56132 45884 36086 26915 22629 18617 14945 13275 11755 10417  9328  8617  8461
  212.50 1.721E-11 89076 78210 67519 57025 46810 36973 27653 23266 19123 15305 13556 11952 10529  9355  8547  8332
  213.50 2.290E-11 89214 78472 67817 57336 47074 37083 27546 23013 18699 14672 12808 11070  9498  8166  7201  6930
  214.50 1.790E-11 88994 78156 67486 57095 46983 37302 28201 23939 19944 16285 14620 13095 11754 10659  9922  9743
  215.50 2.149E-11 89297 78688 68171 57841 47743 37953 28660 24267 20102 16240 14463 12815 11336 10088  9200  8953
  216.50 2.118E-11 89424 78895 68508 58263 48253 38551 29344 24995 20883 17077 15326 13711 12271 11062 10212  9986
  217.50 2.290E-11 89476 78996 68646 58472 48515 38873 29690 25341 21214 17384 15620 13983 12515 11279 10402 10157
  218.50 2.084E-11 89395 78935 68666 58589 48800 39376 30485 26315 22380 18772 17126 15614 14280 13177 12433 12246
  219.50 3.611E-11 89754 79507 69288 59153 49100 39214 29659 25040 20606 16411 14436 12573 10853  9346  8186  7804
  220.50 2.940E-11 89592 79218 68980 58878 48980 39388 30207 25854 21707 17847 16058 14395 12895 11629 10721 10463
  221.50 3.632E-11 89978 79956 69961 59994 50138 40446 31002 26448 22051 17880 15914 14058 12346 10848  9692  9309
  222.50 3.290E-11 89787 79605 69483 59514 49696 40152 31003 26663 22523 18666 16878 15219 13720 12441 11498 11213
  223.50 5.693E-11 90146 80256 70332 60390 50430 40541 30810 26050 21395 16942 14813 12775 10866  9141  7732  7183
  224.50 6.387E-11 89995 79944 69861 59762 49695 39721 29951 25207 20604 16220 14144 12168 10335  8704  7413  6958
  225.50 7.704E-11 90498 80893 71197 61397 51519 41589 31698 26791 21963 17264 14979 12767 10659  8714  7063  6385
  226.50 3.884E-11 89933 79943 70031 60273 50695 41426 32570 28347 24328 20582 18847 17232 15780 14562 13713 13494
  227.50 7.593E-11 90597 81101 71500 61807 52048 42236 32464 27631 22863 18227 15988 13815 11758  9866  8275  7637
  228.50 7.823E-11 90081 80110 70114 60105 50147 40279 30628 25936 21398 17065 15007 13051 11250  9651  8409  7998
  229.50 1.254E-10 90829 81499 71970 62289 52448 42464 32376 27329 22297 17344 14920 12552 10271  8150  6319  5561
  230.50 4.809E-11 89936 79975 70119 60449 50988 41880 33229 29133 25286 21730 20106 18613 17290 16201 15469 15296
  231.50 1.570E-10 90955 81783 72420 62860 53115 43178 33070 27968 22866 17790 15287 12828 10439  8178  6185  5307
  232.50 1.235E-10 90364 80696 70915 61061 51166 41271 31457 26632 21887 17296 15077 12955 10947  9126  7653  7113
  233.50 1.939E-10 90975 81743 72305 62764 52965 43002 32862 27751 22635 17550 15039 12573 10181  7916  5926  5063
  234.50 1.191E-10 90848 81478 72049 62527 52914 43233 33560 28766 24022 19395 17145 14971 12905 10991  9362  8699
  235.50 1.031E-10 90301 80601 70883 61183 51532 41988 32667 28128 23734 19534 17536 15645 13899 12347 11154 10766
  236.50 1.420E-10 90845 81479 72042 62528 52894 43190 33479 28655 23887 19232 16972 14789 12704 10789  9176  8535
  237.50 1.380E-10 90580 81087 71507 61855 52167 42478 32891 28174 23565 19116 16986 14942 13029 11304  9928  9442
  238.50 2.325E-10 91312 82452 73419 64172 54667 44946 34946 29854 24714 19553 16981 14430 11931  9523  7342  6318
  239.50 2.138E-10 90973 81852 72544 63096 53461 43639 33723 28746 23789 18901 16506 14163 11908  9804  7989  7231
  240.50 3.715E-10 91548 82907 73997 64872 55397 45599 35424 30202 24848 19416 16678 13938 11211  8538  6032  4794
  241.50 2.401E-10 91212 82299 73178 63848 54352 44648 34748 29750 24736 19746 17284 14860 12507 10287  8342  7505
  242.50 3.130E-10 91406 82620 73610 64409 54952 45208 35208 30105 24939 19744 17153 14581 12054  9626  7419  6374
  243.50 4.379E-10 91665 83078 74264 65175 55743 45947 35762 30509 25143 19694 16940 14179 11434  8744  6237  5024
  244.50 6.007E-10 91926 83619 75062 66189 56950 47262 37040 31713 26203 20526 17613 14661 11680  8688  5773  4227
  245.50 6.873E-10 91998 83806 75353 66579 57442 47839 37655 32315 26771 21024 18056 15030 11955  8843  5769  4100
  246.50 4.480E-10 91518 82857 73973 64844 55424 45714 35647 30491 25246 19938 17277 14625 12007  9473  7147  6025
  247.50 7.470E-10 92303 84351 76091 67470 58420 48862 38661 33280 27671 21807 18782 15676 12507  9286  6084  4336
  248.50 2.736E-10 91338 82493 73501 64327 55007 45504 35925 31111 26319 21597 19287 17043 14905 12946 11352 10786
  249.50 3.298E-10 91662 83111 74378 65403 56216 46816 37144 32232 27277 22307 19833 17383 14985 12696 10661  9757
  250.50 6.729E-10 92079 83905 75435 66637 57468 47838 37702 32412 26958 21326 18457 15560 12627  9710  6913  5485
  251.30 4.544E-10 92011 83803 75330 66549 57438 47975 38072 32967 27729 22403 19699 16998 14316 11697  9278  8138
  251.80 4.344E-10 92265 84277 76013 67426 58494 49148 39342 34231 28959 23573 20813 18036 15253 12512  9965  8778
  252.50 5.170E-10 92476 84700 76615 68162 59323 50000 40135 34952 29574 24004 21141 18215 15251 12273  9387  7925
  253.50 1.202E-09 92928 85607 78062 70108 61672 52621 42729 37371 31664 25516 22246 18810 15183 11339  7254  4750
  254.50 1.420E-09 93310 86268 78944 71197 62859 53859 43944 38535 32732 26451 23085 19528 15754 11711  7345  4594
  255.50 1.736E-09 92627 85081 77362 69297 60772 51636 41694 36319 30605 24470 21210 17800 14211 10415  6406  3968
  256.50 1.025E-09 92049 83912 75502 66771 57668 48117 38039 32761 27327 21698 18820 15883 12927  9941  7040  5504
  257.50 1.608E-09 92289 84515 76617 68470 59932 50858 41070 35815 30255 24316 21175 17892 14453 10821  6984  4635
  258.50 1.279E-09 91947 83659 75199 66388 57209 47592 37451 32150 26677 21032 18147 15215 12260  9304  6457  4991
  259.50 1.542E-09 91959 83852 75616 67121 58314 49021 39105 33859 28372 22601 19598 16511 13327 10052  6738  4842
  260.50 2.065E-09 91961 84019 75981 67748 59128 50024 40223 34978 29438 23530 20412 17157 13763 10203  6489  4276
  261.50 1.899E-09 92206 84308 76198 67773 58926 49558 39526 34197 28605 22712 19637 16461 13191  9821  6419  4506
  262.50 2.776E-09 92075 84258 76405 68372 59978 51081 41463 36239 30702 24730 21542 18188 14636 10843  6744  4153
  263.50 4.894E-09 87454 77156 68390 60503 52942 45300 37148 32734 27993 22803 19984 16974 13721 10149  6130  3425
  264.50 3.890E-09 89177 80000 71722 63830 55887 47609 38689 33856 28689 23105 20111 16949 13589  9987  6082  3599
  265.50 8.433E-09 78383 62386 50777 42286 35693 29989 24380 21440 18321 14929 13091 11137  9024  6703  4091  2330
  266.50 4.858E-09 88226 78469 69967 62104 54343 46315 37649 32956 27933 22478 19547 16453 13160  9625  5788  3341
  267.50 4.475E-09 86503 75710 66682 58704 51106 43464 35397 31084 26480 21517 18849 16027 13008  9743  6150  3803
  268.50 6.669E-09 83701 71180 61389 53351 46214 39271 32029 28145 24007 19478 17049 14456 11672  8638  5266  3035
  269.50 3.597E-09 91938 84098 76258 68224 59800 50848 41145 35919 30359 24370 21193 17865 14359 10653  6733  4356
  270.50 6.573E-09 86201 75247 66256 58436 51133 43816 36057 31858 27370 22440 19763 16902 13787 10353  6448  3759
  271.50 5.297E-09 91826 84142 76647 69096 61242 52860 43647 38607 33132 27110 23844 20332 16519 12330  7608  4433
  272.50 4.410E-09 93243 86304 79070 71474 63356 54580 44875 39546 33787 27506 24104 20497 16621 12415  7778  4778
  273.50 4.965E-09 92649 85317 77865 70151 62014 53293 43686 38449 32830 26687 23384 19863 16097 12012  7511  4592
  274.50 6.398E-09 93060 86105 78993 71616 63817 55408 46046 40872 35230 28978 25539 21835 17802 13328  8204  4675
  275.50 6.724E-09 91449 83418 75669 67980 60113 51829 42802 37849 32525 26651 23453 20018 16300 12185  7536  4396
  276.50 9.435E-09 89730 80657 72411 64674 57096 49338 41039 36524 31638 26232 23254 20032 16492 12496  7817  4435
  277.50 1.246E-08 89727 80658 72327 64583 57087 49510 41453 37063 32295 26974 24021 20795 17199 13090  8146  4471
  278.50 7.811E-09 92677 85418 78108 70618 62809 54462 45282 40225 34746 28665 25336 21751 17834 13468  8436  4919
  279.50 7.897E-09 93808 87438 80815 73863 66443 58364 49323 44270 38724 32506 29036 25263 21059 16247 10462  6123
  280.50 8.454E-09 94038 87840 81346 74450 67010 58824 49586 44405 38692 32269 28696 24805 20499 15602  9815  5596
  281.50 1.059E-08 93173 86364 79462 72332 64825 56742 47753 42767 37290 31152 27743 24032 19906 15212  9594  5442
  282.50 1.116E-08 93728 87276 80654 73728 66326 58253 49149 44032 38396 32025 28477 24588 20278 15367  9525  5275
  283.50 9.659E-09 94358 88415 82100 75308 67906 59665 50264 44943 39083 32467 28781 24785 20364 15364  9517  5349
  284.50 7.103E-09 94580 88793 82557 75771 68295 59947 50359 44953 38998 32310 28608 24595 20203 15275  9633  5800
  285.50 3.589E-09 94121 87880 81220 74032 66202 57593 47952 42630 36891 30593 27183 23580 19744 15634 11265  8710
  286.50 1.025E-08 94878 89405 83532 77132 70068 62107 52888 47620 41737 35024 31249 27093 22449 17122 10722  6017
  287.50 1.226E-08 94290 88336 81974 75261 67953 59853 50620 45400 39617 33083 29429 25440 21003 15954  9959  5586
  288.50 1.725E-08 93159 86551 80000 73333 66319 58783 50336 45594 40325 34313 30910 27136 22858 17832 11519  6504
  289.50 2.380E-08 89034 79790 71807 64580 57689 50714 43193 39105 34605 29508 26634 23450 19828 15546 10122  5731
  291.00 7.478E-08 78925 61367 47205 36159 27855 21717 17077 15058 13077 11028  9926  8736  7410  5868  3930  2364
  293.00 5.184E-08 81134 65664 53299 43615 36073 30015 24730 22126 19425 16470 14840 13052 11038  8675  5694  3285
  295.00 3.338E-08 86669 75644 66447 58628 51648 44997 38167 34482 30497 26010 23481 20680 17499 13742  8972  5105
  297.00 3.175E-08 87244 76693 67906 60378 53543 46929 39969 36157 32000 27247 24576 21616 18255 14296  9304  5301
  299.00 3.462E-08 88446 78741 70393 62998 56124 49336 42201 38302 34027 29174 26430 23371 19879 15722 10387  5985
  301.00 3.357E-08 90140 81531 73875 66816 59994 53053 45606 41495 36968 31814 28886 25615 21862 17373 11567  6729
  303.00 4.777E-08 86184 74649 65041 56981 49990 43542 37136 33724 30019 25874 23529 20934 17951 14381  9726  5776
  305.00 5.246E-08 87686 77278 68414 60713 53774 47160 40431 36828 32901 28479 25982 23180 19958 16071 10917  6454
  307.00 9.463E-08 82289 67389 55131 45260 37409 31090 25700 23132 20511 17690 16126 14414 12459 10119  7018  4307
  309.00 7.876E-08 84637 71610 60741 51765 44312 37925 32059 29114 26003 22588 20670 18537 16087 13116  9157  5646
  311.00 1.774E-07 81511 65389 51776 40552 31623 24729 19431 17182 15056 12914 11787 10564  9194  7559  5388  3452
  313.00 1.435E-07 82787 67868 55178 44655 36125 29296 23714 21199 18718 16139 14739 13220 11491  9429  6677  4226
  315.00 2.208E-07 83152 68025 54710 43333 33872 26259 20272 17754 15435 13188 12034 10811  9457  7858  5743  3833
  317.00 2.896E-07 83840 69164 56077 44648 34910 26823 20314 17559 15055 12700 11530 10325  9026  7535  5590  3840
  319.00 2.054E-07 84080 69864 57400 46646 37624 30195 24094 21402 18832 16246 14883 13423 11782  9830  7191  4755
  321.00 2.197E-07 84661 70915 58807 48339 39408 31884 25526 22658 19900 17132 15685 14147 12435 10414  7706  5193
  323.00 1.941E-07 85523 72488 60948 50881 42205 34786 28377 25420 22524 19552 17970 16260 14343 12050  8949  6043
  325.00 4.142E-07 84114 69556 56494 45002 35128 26944 20343 17566 15058 12726 11579 10403  9143  7697  5797  4046
  327.00 5.721E-07 84024 69324 56004 44223 34067 25625 18878 16093 13629 11404 10336  9262  8135  6864  5225  3725
  329.00 6.303E-07 84880 70776 57830 46168 35935 27225 20086 17087 14422 12018 10876  9741  8567  7265  5608  4092
  331.00 4.852E-07 85120 71352 58821 47630 37840 29493 22609 19637 16935 14404 13160 11882 10515  8945  6869  4913
  333.00 5.266E-07 85150 71439 58944 47778 38017 29700 22788 19806 17077 14518 13255 11965 10592  9024  6967  5032
  335.00 4.849E-07 85543 72180 60012 49082 39513 31305 24397 21365 18579 15913 14580 13207 11730 10037  7804  5696
  337.00 2.315E-07 87775 76631 66566 57624 49633 42536 36039 32886 29685 26285 24436 22406 20086 17257 13300  9378
  339.00 2.965E-07 87319 75818 65497 56358 48263 41046 34503 31383 28229 24931 23153 21224 19042 16398 12718  9052
  341.00 3.096E-07 87855 76809 66828 57881 49903 42700 36047 32849 29580 26166 24331 22335 20081 17355 13550  9735
  343.00 3.684E-07 87676 76466 66314 57193 49023 41721 35016 31813 28610 25271 23488 21558 19384 16756 13081  9370
  345.00 3.761E-07 87184 75459 64876 55437 47062 39670 33076 29965 26881 23725 22042 20226 18184 15722 12287  8822
  347.00 3.666E-07 87480 76159 66067 57092 49182 42144 35734 32651 29542 26255 24482 22553 20355 17673 13876 10000
  349.00 5.719E-07 86291 73737 62406 52299 43452 35758 29079 26036 23116 20213 18710 17113 15365 13300 10474  7655
  351.00 7.729E-07 86376 73722 62130 51663 42347 34209 27145 23962 20960 18049 16587 15099 13495 11682  9300  6997
  353.00 6.677E-07 86910 74734 63532 53332 44196 36079 28905 25610 22450 19350 17777 16145 14405 12402  9765  7226
  355.00 9.118E-07 86872 74611 63292 52972 43683 35403 28076 24720 21518 18414 16868 15288 13610 11746  9358  7099
  357.00 3.261E-07 90156 81110 72830 65164 58019 51211 44465 41030 37412 33456 31279 28865 26078 22637 17728 12680
  359.00 3.512E-07 88810 78559 69277 60849 53246 46327 39806 36560 33200 29584 27583 25376 22830 19684 15199 10632
  361.00 5.965E-07 87728 76362 65918 56429 47879 40218 33294 30025 26806 23537 21827 20000 17988 15598 12320  9023
  363.00 7.328E-07 87923 76597 66075 56400 47598 39642 32465 29094 25819 22544 20865 19105 17181 14970 12022  9125
  364.00 8.491E-07 87870 76481 65870 56106 47191 39136 31857 28465 25168 21894 20221 18478 16606 14462 11649  8919
  365.00 1.122E-06 87647 75865 64697 54251 44626 35909 28164 24643 21328 18164 16613 15045 13405 11595  9296  7135
  367.00 1.396E-06 87607 75788 64542 54026 44319 35509 27636 24047 20673 17464 15895 14327 12722 10981  8854  6941
  369.00 9.621E-07 88016 76686 66064 56200 47157 38956 31546 28105 24790 21515 19852 18137 16298 14198 11454  8787
  371.00 8.020E-07 87880 76621 66284 56895 48466 40948 34177 30998 27868 24676 23017 21234 19277 16945 13716 10424
  373.00 2.869E-07 92959 86406 80202 74277 68456 62565 56257 52841 49041 44650 42140 39247 35831 31429 24925 17982
  375.00 3.745E-07 91802 84272 77250 70681 64406 58211 51856 48491 44833 40721 38398 35754 32630 28705 22905 16713
  377.00 9.848E-07 88708 78046 68044 58733 50132 42232 34931 31448 28016 24553 22766 20877 18826 16450 13262 10108
  379.00 1.107E-06 88401 77425 67145 57597 48808 40759 33388 29901 26486 23080 21328 19503 17543 15294 12340  9485
  381.00 8.770E-07 89316 79282 69920 61220 53147 45644 38540 35063 31562 27936 26009 23957 21688 19008 15336 11619
  383.00 2.889E-07 95777 91485 87054 82416 77501 72066 65871 62305 58255 53409 50571 47283 43268 38110 30395 22118
  385.00 5.847E-07 91671 83821 76398 69352 62528 55806 48965 45391 41628 37506 35215 32701 29793 26236 21122 15786
  387.00 5.261E-07 92188 84832 77856 71184 64722 58278 51644 48128 44364 40182 37845 35221 32161 28341 22809 16963
  389.00 7.387E-07 90064 80818 72249 64343 57019 50156 43563 40260 36862 33221 31231 29051 26547 23487 19101 14444
  391.00 1.225E-06 88816 78196 68278 59045 50531 42710 35527 32106 28759 25371 23624 21780 19755 17396 14171 10865
  393.00 3.905E-07 94238 88656 83201 77746 72190 66376 60000 56440 52471 47811 45096 41997 38233 33419 26274 18648
  395.00 1.021E-06 89853 80235 71185 62723 54809 47405 40392 36944 33467 29833 27894 25798 23428 20568 16513 12223
  397.00 6.398E-07 91716 83823 76321 69147 62269 55564 48828 45327 41607 37496 35198 32604 29587 25805 20272 14417
  399.00 2.266E-06 88482 77449 66858 56840 47529 38897 31055 27414 23932 20560 18883 17180 15402 13433 10940  8548
  401.00 2.670E-06 88764 77865 67378 57378 47978 39176 31097 27326 23715 20228 18502 16764 14970 13022 10648  8487
  403.00 2.393E-06 88508 77476 66903 56874 47555 38922 31074 27434 23957 20593 18922 17229 15462 13514 11066  8763
  405.00 2.279E-06 88899 78148 67925 58227 49144 40702 32949 29307 25788 22330 20588 18806 16924 14818 12137  9583
  407.00 1.945E-06 89049 78560 68638 59332 50632 42581 35136 31594 28129 24653 22874 21023 19028 16746 13738 10761
  409.00 3.247E-06 88882 78072 67570 57499 47921 38959 30718 26871 23197 19664 17927 16190 14410 12507 10231  8223
  411.00 2.587E-06 88210 76884 66100 55934 46579 38017 30363 26861 23541 20348 18763 17147 15450 13556 11129  8790
  413.00 2.604E-06 88594 77650 67204 57335 48157 39670 31966 28376 24927 21559 19873 18149 16333 14309 11724  9247
  415.00 2.405E-06 88773 78046 67859 58295 49397 41193 33672 30129 26694 23289 21559 19775 17871 15721 12944 10249
  417.00 2.614E-06 88447 77391 66985 57192 48202 39939 32498 29032 25696 22422 20769 19067 17253 15199 12517  9870
  419.00 2.540E-06 89134 78661 68701 59291 50472 42323 34760 31185 27705 24248 22488 20669 18728 16528 13654 10823
  421.00 2.423E-06 88816 78126 68015 58522 49732 41684 34329 30900 27577 24292 22621 20879 19005 16843 13937 10970
  423.00 1.714E-06 88915 78530 68786 59860 51704 44323 37620 34446 31301 28081 26365 24516 22427 19872 16196 12217
  425.00 2.460E-06 89350 79106 69309 60000 51260 43171 35675 32150 28728 25329 23598 21797 19854 17618 14622 11561
  427.00 2.240E-06 89911 80179 70848 62009 53616 45759 38424 34893 31415 27906 26089 24179 22098 19665 16353 12924
  429.00 2.212E-06 90235 80787 71700 63020 54702 46881 39408 35800 32215 28580 26695 24715 22550 20041 16646 13178
  431.00 2.063E-06 91275 82695 74309 66117 58168 50460 42957 39234 35487 31624 29598 27450 25099 22351 18633 14838
  433.00 3.491E-06 89860 79920 70266 60928 51991 43512 35549 31739 28026 24366 22521 20636 18654 16459 13687 11031
  435.00 3.821E-06 90212 80607 71133 61921 52970 44334 36064 32086 28186 24313 22376 20406 18356 16119 13363 10801
  437.00 4.129E-06 90022 80189 70574 61225 52216 43546 35335 31388 27561 23768 21877 19956 17963 15796 13122 10630
  439.00 3.276E-06 90263 80769 71551 62607 53999 45788 37943 34127 30385 26630 24713 22735 20635 18272 15226 12237
  441.00 3.486E-06 89960 80207 70740 61589 52869 44550 36718 32960 29260 25579 23715 21793 19759 17478 14550 11687
  443.00 4.070E-06 89705 79607 69779 60270 51179 42555 34496 30663 26978 23356 21548 19708 17786 15668 13007 10472
  445.00 4.227E-06 89922 80009 70310 60894 51833 43198 35060 31181 27395 23705 21850 19965 17999 15841 13163 10651
  447.00 4.843E-06 89965 80033 70287 60747 51538 42721 34380 30415 26574 22816 20958 19063 17109 14993 12406 10023
  449.00 5.069E-06 90018 80134 70389 60880 51687 42868 34524 30558 26731 22983 21109 19225 17280 15173 12604 10241
  451.00 6.277E-06 90075 80182 70384 60730 51314 42249 33647 29536 25585 21762 19866 17970 16059 14010 11606  9485
  453.00 5.039E-06 89958 80016 70232 60706 51498 42707 34451 30522 26731 23040 21215 19359 17438 15350 12778 10367
  455.00 5.693E-06 90058 80186 70437 60882 51607 42702 34270 30265 26401 22624 20762 18883 16945 14864 12343 10030
  457.00 6.290E-06 90143 80334 70604 61033 51701 42719 34181 30111 26184 22353 20477 18585 16645 14569 12102  9892
  459.00 5.952E-06 90255 80561 70951 61492 52268 43364 34896 30864 26949 23118 21220 19321 17339 15230 12671 10331
  461.00 6.153E-06 90330 80676 71120 61710 52511 43637 35186 31123 27190 23338 21437 19503 17520 15383 12812 10473
  463.00 6.157E-06 90385 80802 71301 61946 52802 43966 35521 31460 27513 23648 21715 19766 17752 15569 12928 10503
  465.00 6.103E-06 90316 80682 71145 61773 52630 43815 35409 31394 27495 23677 21760 19843 17844 15699 13077 10655
  467.00 6.715E-06 90469 80938 71482 62130 52971 44080 35577 31482 27506 23604 21668 19717 17707 15547 12940 10561
  469.00 6.530E-06 90459 80934 71485 62159 53032 44196 35758 31700 27764 23905 21975 20031 18040 15881 13262 10847
  471.00 6.223E-06 90423 80893 71445 62173 53126 44400 36124 32155 28298 24522 22642 20746 18769 16616 13951 11430
  473.00 6.382E-06 90270 80586 71028 61658 52554 43826 35569 31652 27860 24162 22328 20464 18537 16437 13811 11304
  475.00 6.417E-06 90151 80380 70750 61321 52190 43478 35297 31432 27692 24077 22269 20461 18560 16503 13907 11398
  477.00 6.145E-06 89862 79854 70041 60521 51408 42799 34841 31131 27567 24117 22408 20683 18861 16843 14236 11598
  479.00 6.432E-06 90081 80255 70585 61147 52052 43392 35308 31499 27830 24269 22512 20725 18859 16791 14168 11553
  481.00 6.999E-06 90556 81154 71796 62580 53565 44835 36505 32505 28618 24804 22903 20974 18974 16788 14071 11446
  483.00 7.151E-06 90547 81108 71738 62495 53447 44707 36373 32387 28500 24710 22808 20892 18906 16753 14096 11534
  485.00 7.079E-06 90903 81777 72680 63639 54753 46094 37745 33705 29736 25823 23859 21853 19777 17502 14705 12047
  487.00 6.324E-06 91287 82543 73798 65070 56452 47992 39769 35753 31768 27799 25791 23719 21553 19165 16161 13257
  489.00 6.854E-06 90969 81923 72936 64050 55311 46790 38591 34608 30697 26802 24847 22848 20747 18442 15582 12836
  491.00 6.954E-06 90883 81780 72735 63805 55062 46578 38438 34498 30644 26805 24878 22922 20851 18579 15732 12993
  493.00 6.483E-06 90899 81829 72852 64014 55391 47062 39071 35215 31436 27672 25760 23801 21734 19435 16520 13645
  495.00 6.806E-06 90743 81516 72392 63429 54716 46312 38334 34499 30752 27050 25184 23274 21261 19027 16162 13296
  497.00 6.717E-06 90561 81212 72011 63019 54340 46032 38187 34435 30788 27170 25354 23478 21483 19250 16347 13348
  499.00 5.977E-06 90698 81512 72495 63728 55279 47231 39619 35954 32391 28827 27004 25130 23105 20813 17751 14547
  501.00 5.343E-06 90698 81583 72712 64121 55905 48138 40801 37282 33801 30320 28523 26652 24612 22253 19034 15583
  503.00 5.900E-06 90610 81373 72373 63627 55254 47305 39814 36237 32729 29237 27458 25593 23593 21288 18203 14971
  505.00 5.508E-06 90686 81554 72694 64143 55955 48221 40922 37418 33969 30501 28722 26852 24818 22476 19263 15877
  507.00 5.542E-06 90455 81162 72158 63551 55413 47763 40653 37261 33941 30603 28888 27066 25099 22790 19596 16173
  509.00 5.227E-06 90683 81634 72891 64511 56553 49072 42051 38665 35336 31969 30209 28353 26306 23876 20528 16897
  511.00 5.328E-06 90803 81832 73161 64846 56907 49399 42324 38908 35548 32132 30349 28472 26426 24005 20664 17081
  513.00 5.058E-06 90925 82088 73567 65401 57651 50336 43416 40075 36754 33373 31594 29696 27600 25109 21609 17821
  515.00 4.686E-06 91144 82544 74221 66283 58707 51558 44772 41464 38156 34763 32971 31071 28916 26355 22727 18760
  517.00 4.070E-06 92187 84570 77174 70025 63096 56388 49828 46536 43145 39582 37666 35577 33194 30319 26143 21428
  519.00 4.540E-06 92026 84251 76696 69361 62291 55463 48767 45441 42026 38458 36520 34449 32115 29295 25242 20736
  521.00 5.670E-06 91517 83122 74903 66861 59030 51481 44162 40564 36966 33280 31358 29347 27125 24550 21023 17268
  523.00 7.502E-06 91602 83204 74847 66556 58371 50333 42495 38616 34764 30845 28832 26740 24513 22007 18768 15529
  525.00 8.452E-06 91540 83034 74503 66008 57584 49302 41197 37222 33258 29283 27260 25177 22977 20528 17440 14434
  527.00 6.516E-06 91882 83778 75721 67756 59914 52225 44690 40961 37216 33379 31384 29312 27056 24478 21056 17541
  529.00 8.563E-06 91697 83335 74950 66577 58251 50041 41983 38001 34042 30048 28004 25902 23672 21208 18089 15065
  531.00 9.506E-06 91710 83347 74932 66484 58079 49748 41563 37534 33516 29487 27435 25331 23122 20692 17663 14759
  533.00 7.725E-06 91884 83741 75625 67547 59547 51663 43909 40065 36220 32298 30278 28181 25929 23392 20117 16816
  535.00 8.971E-06 91762 83469 75131 66815 58533 50362 42336 38379 34433 30465 28436 26340 24122 21670 18571 15539
  537.00 8.715E-06 91830 83614 75387 67172 59025 50981 43075 39174 35273 31337 29306 27217 25003 22524 19369 16248
  539.00 8.604E-06 91818 83601 75372 67166 59019 51000 43119 39226 35332 31392 29382 27290 25058 22571 19375 16213
  541.00 8.393E-06 91981 83927 75849 67795 59788 51877 44072 40212 36340 32396 30371 28274 26022 23496 20255 17014
  543.00 8.510E-06 91845 83678 75499 67368 59307 51387 43619 39777 35946 32056 30059 27991 25781 23290 20082 16874
  545.00 8.875E-06 91820 83606 75380 67200 59087 51110 43301 39448 35606 31730 29735 27662 25465 22986 19775 16485
  547.00 9.293E-06 91940 83816 75659 67481 59346 51286 43334 39395 35457 31475 29420 27300 25051 22533 19294 16034
  549.00 9.605E-06 91942 83821 75648 67475 59323 51255 43290 39344 35409 31411 29370 27257 25008 22488 19261 16023
  551.00 9.361E-06 91956 83837 75686 67536 59406 51362 43436 39504 35573 31589 29548 27433 25190 22669 19432 16173
  553.00 9.946E-06 92087 84094 76031 67927 59833 51780 43796 39825 35854 31812 29741 27599 25337 22803 19576 16388
  555.00 1.019E-05 92031 84014 75927 67812 59686 51609 43611 39647 35672 31658 29598 27478 25221 22718 19539 16389
  557.00 9.829E-06 92197 84302 76335 68328 60311 52335 44409 40462 36504 32475 30410 28263 25984 23431 20175 16960
  559.00 9.408E-06 92219 84354 76435 68495 60565 52689 44877 40986 37085 33110 31048 28922 26648 24086 20780 17474
  561.00 1.022E-05 92211 84325 76360 68337 60303 52280 44315 40342 36350 32299 30215 28053 25763 23200 19932 16683
  563.00 1.043E-05 92282 84449 76529 68562 60575 52589 44640 40662 36663 32589 30489 28313 25992 23413 20115 16846
  565.00 1.074E-05 92337 84553 76676 68734 60754 52775 44804 40819 36797 32700 30587 28399 26061 23473 20177 16946
  567.00 1.045E-05 92383 84651 76823 68938 61014 53081 45158 41196 37187 33100 30986 28785 26450 23828 20498 17196
  569.00 1.072E-05 92388 84674 76866 68993 61073 53153 45252 41287 37295 33228 31119 28937 26614 24021 20728 17500
  571.00 1.028E-05 92412 84708 76916 69076 61196 53327 45477 41547 37578 33521 31430 29241 26907 24290 20924 17597
  573.00 1.139E-05 92274 84530 76655 68701 60702 52704 44723 40737 36725 32651 30544 28376 26067 23503 20272 17138
  575.00 1.117E-05 92390 84745 76965 69123 61227 53312 45407 41441 37449 33357 31253 29069 26741 24136 20842 17610
  577.00 1.137E-05 92436 84749 76975 69129 61231 53316 45400 41442 37441 33360 31249 29068 26746 24151 20853 17617
  579.00 1.083E-05 92428 84820 77110 69335 61524 53712 45910 41994 38042 33998 31902 29723 27387 24774 21404 18052
  581.00 1.149E-05 92515 84865 77145 69339 61480 53594 45709 41749 37746 33664 31549 29365 27032 24421 21105 17833
  583.00 1.193E-05 92540 84912 77209 69388 61500 53579 45633 41651 37628 33512 31400 29195 26865 24267 20989 17787
  585.00 1.155E-05 92554 85013 77342 69593 61775 53931 46069 42121 38139 34052 31948 29749 27411 24797 21463 18173
  587.00 1.171E-05 92570 85047 77404 69675 61870 54031 46166 42212 38215 34116 31998 29795 27438 24816 21460 18155
  589.00 1.012E-05 92905 85642 78271 70791 63241 55623 47945 44061 40119 36038 33903 31670 29269 26542 22984 19377
  591.00 1.175E-05 92681 85191 77643 69966 62213 54426 46587 42638 38647 34545 32417 30204 27838 25183 21787 18409
  593.00 1.182E-05 92724 85279 77724 70068 62343 54560 46734 42792 38790 34687 32563 30347 27978 25321 21920 18545
  595.00 1.193E-05 92624 85163 77628 69975 62238 54451 46630 42691 38701 34610 32490 30277 27913 25256 21861 18483
  597.00 1.219E-05 92699 85316 77752 70123 62412 54643 46833 42896 38901 34807 32683 30468 28113 25472 22108 18769
  599.00 1.209E-05 92721 85360 77833 70223 62531 54789 47006 43085 39107 35021 32903 30695 28337 25682 22283 18883
  601.00 1.193E-05 92791 85415 78013 70469 62842 55163 47427 43521 39556 35474 33353 31140 28768 26102 22674 19237
  603.00 1.227E-05 92828 85575 78158 70628 62999 55306 47539 43610 39625 35526 33399 31174 28802 26137 22730 19356
  605.00 1.255E-05 92829 85498 78064 70510 62861 55147 47378 43450 39466 35371 33251 31036 28669 26024 22645 19315
  607.00 1.249E-05 92794 85508 78102 70576 62962 55276 47534 43619 39648 35556 33435 31217 28855 26197 22810 19472
  609.00 1.211E-05 92898 85714 78348 70900 63377 55780 48109 44228 40281 36201 34079 31866 29480 26796 23344 19909
  611.00 1.221E-05 92957 85749 78477 71057 63554 55979 48329 44455 40516 36446 34333 32113 29738 27068 23620 20188
  613.00 1.139E-05 93064 85926 78718 71422 64047 56611 49096 45277 41378 37340 35224 33003 30606 27875 24320 20729
  615.00 1.216E-05 93010 85855 78610 71258 63824 56299 48701 44844 40913 36842 34720 32492 30107 27393 23890 20370
  617.00 1.111E-05 93159 86121 79019 71836 64572 57237 49820 46049 42196 38200 36094 33879 31476 28722 25068 21287
  619.00 1.254E-05 92982 85885 78660 71308 63852 56308 48676 44801 40845 36762 34625 32392 29992 27265 23732 20136
  621.00 1.251E-05 92966 85851 78609 71239 63773 56235 48601 44732 40783 36699 34564 32334 29920 27194 23629 19984
  623.00 1.220E-05 93115 86066 78877 71598 64230 56770 49213 45369 41443 37377 35246 33000 30582 27820 24189 20426
  625.00 1.185E-05 93165 86160 78987 71755 64430 57021 49511 45688 41781 37713 35586 33342 30911 28127 24456 20658
  627.00 1.246E-05 93018 85955 78764 71461 64069 56605 49045 45201 41292 37231 35104 32873 30457 27713 24109 20401
  629.00 1.277E-05 93109 86061 78935 71621 64236 56758 49186 45333 41402 37330 35200 32960 30556 27815 24260 20634
  631.00 1.240E-05 93145 86210 79137 71952 64669 57306 49831 46024 42137 38097 35976 33750 31339 28589 24984 21282
  633.00 1.265E-05 93202 86245 79209 72032 64759 57383 49905 46095 42206 38158 36040 33810 31407 28664 25075 21407
  635.00 1.284E-05 93224 86215 79206 72009 64735 57375 49907 46106 42227 38201 36090 33871 31480 28754 25202 21542
  637.00 1.287E-05 93240 86325 79254 72121 64872 57529 50078 46278 42401 38376 36263 34040 31647 28920 25346 21671
  639.00 1.317E-05 93242 86409 79347 72240 64989 57631 50137 46317 42407 38345 36219 33979 31572 28831 25254 21610
  641.00 1.287E-05 93318 86480 79565 72479 65291 57995 50559 46760 42875 38819 36690 34452 32028 29270 25649 21919
  643.00 1.306E-05 93262 86447 79479 72381 65168 57856 50421 46631 42749 38714 36593 34364 31960 29219 25636 21953
  645.00 1.287E-05 93395 86558 79643 72634 65486 58228 50839 47071 43201 39176 37063 34833 32424 29666 26045 22308
  647.00 1.281E-05 93443 86651 79781 72748 65628 58407 51046 47291 43443 39422 37315 35090 32678 29922 26284 22529
  649.00 1.270E-05 93386 86693 79843 72835 65764 58575 51260 47520 43685 39685 37575 35346 32937 30165 26504 22693
  651.00 1.334E-05 93403 86582 79760 72706 65570 58313 50915 47136 43268 39235 37114 34888 32474 29723 26109 22399
  653.00 1.361E-05 93461 86701 79868 72829 65687 58420 51014 47223 43343 39295 37171 34938 32520 29765 26157 22454
  655.00 1.333E-05 93623 87022 80270 73368 66279 59040 51620 47817 43916 39835 37689 35431 32986 30188 26519 22731
  657.00 1.284E-05 94159 88162 81854 75273 68427 61293 53855 49992 45989 41783 39564 37220 34673 31760 27928 23980
  659.00 1.352E-05 93565 86982 80251 73314 66257 59068 51709 47936 44068 40022 37892 35643 33217 30436 26783 23018
  661.00 1.381E-05 93483 86821 80014 73063 65952 58733 51361 47581 43715 39674 37553 35315 32889 30130 26495 22752
  663.00 1.381E-05 93555 86894 80159 73208 66198 59030 51702 47944 44084 40051 37929 35692 33266 30492 26836 23056
  665.00 1.388E-05 93516 86960 80187 73271 66268 59107 51787 48033 44171 40137 38019 35778 33343 30569 26916 23148
  667.00 1.368E-05 93567 86988 80263 73465 66462 59357 52076 48333 44496 40468 38348 36104 33670 30870 27164 23282
  669.00 1.407E-05 93532 86923 80171 73276 66283 59126 51812 48053 44193 40163 38038 35792 33355 30554 26823 22857
  671.00 1.361E-05 93608 87068 80309 73549 66561 59478 52226 48501 44666 40647 38523 36267 33813 30970 27134 22968
  673.00 1.419E-05 93587 87033 80338 73502 66476 59338 52023 48259 44383 40331 38189 35927 33460 30627 26822 22706
  675.00 1.398E-05 93634 87053 80401 73534 66581 59464 52167 48419 44564 40515 38376 36116 33648 30801 26960 22790
  677.00 1.420E-05 93592 87113 80423 73592 66634 59521 52225 48472 44606 40549 38408 36141 33669 30817 26972 22775
  679.00 1.408E-05 93608 87145 80469 73651 66726 59652 52401 48672 44830 40803 38672 36413 33956 31101 27244 23004
  681.00 1.417E-05 93649 87227 80593 73889 66958 59901 52661 48927 45081 41044 38906 36641 34171 31313 27459 23260
  683.00 1.442E-05 93689 87240 80652 73856 66963 59896 52635 48897 45049 41006 38870 36609 34147 31311 27497 23377
  685.00 1.406E-05 93741 87340 80868 74182 67347 60377 53201 49495 45676 41657 39531 37276 34808 31956 28101 23912
  687.00 1.431E-05 93711 87282 80713 74004 67184 60182 52991 49280 45458 41447 39322 37072 34619 31789 27973 23864
  689.00 1.447E-05 93711 87353 80788 74084 67256 60263 53075 49378 45556 41548 39433 37187 34741 31921 28148 24105
  691.00 1.446E-05 93845 87483 80913 74274 67455 60491 53326 49633 45830 41826 39716 37476 35035 32220 28458 24447
  693.00 1.444E-05 93767 87465 80956 74307 67528 60589 53456 49778 45983 42001 39889 37659 35222 32410 28643 24633
  695.00 1.447E-05 93780 87491 80995 74361 67616 60705 53601 49938 46158 42184 40083 37851 35425 32626 28887 24927
  697.00 1.466E-05 93861 87585 81105 74488 67769 60866 53765 50096 46317 42333 40232 37995 35566 32769 29059 25150
  699.00 1.451E-05 93866 87526 81116 74500 67781 60910 53839 50200 46437 42481 40386 38167 35748 32950 29221 25293
  701.00 1.436E-05 93942 87744 81407 74930 68287 61490 54478 50850 47096 43148 41045 38823 36393 33579 29833 25884
  703.00 1.466E-05 93861 87653 81310 74761 68111 61282 54250 50621 46869 42920 40825 38608 36187 33404 29693 25819
  705.00 1.481E-05 93923 87711 81364 74814 68197 61344 54301 50662 46901 42944 40851 38623 36205 33410 29716 25861
  707.00 1.464E-05 93921 87705 81352 74863 68217 61407 54392 50772 47022 43074 40977 38757 36325 33518 29747 25758
  709.00 1.460E-05 93973 87740 81438 74932 68260 61438 54404 50767 46993 43014 40897 38644 36171 33288 29349 25007
  711.00 1.473E-05 93890 87644 81263 74678 67957 61086 53992 50326 46531 42519 40380 38106 35601 32648 28554 23883
  713.00 1.451E-05 93935 87733 81392 74914 68277 61447 54390 50731 46933 42901 40751 38456 35913 32915 28704 23853
  715.00 1.429E-05 93982 87824 81526 75087 68467 61693 54703 51078 47320 43331 41197 38908 36382 33387 29167 24276
  717.00 1.472E-05 94022 87840 81590 75136 68478 61719 54688 51039 47255 43247 41107 38825 36304 33336 29205 24484
  719.00 1.426E-05 94109 88079 81907 75596 69060 62377 55442 51837 48086 44102 41964 39677 37153 34173 30007 25259
  721.00 1.451E-05 94073 88008 81737 75327 68759 62026 55065 51454 47705 43735 41620 39352 36850 33915 29828 25190
  723.00 1.499E-05 94063 87992 81788 75384 68846 62088 55110 51488 47732 43749 41634 39373 36885 33983 29993 25530
  725.00 1.495E-05 94047 87960 81739 75318 68763 62067 55117 51512 47773 43813 41706 39465 36997 34114 30181 25833
  727.00 1.510E-05 94106 88079 81854 75497 69007 62278 55344 51755 48026 44086 41987 39748 37298 34437 30550 26291
  729.00 1.487E-05 94217 88299 82246 75992 69603 62979 56126 52562 48857 44923 42824 40585 38124 35252 31352 27108
  731.00 1.510E-05 94172 88212 82053 75762 69272 62669 55801 52232 48536 44623 42536 40311 37874 35040 31205 27079
  733.00 1.500E-05 94200 88200 82133 75867 69467 62847 56027 52487 48807 44920 42840 40633 38200 35380 31560 27473
  735.00 1.509E-05 94168 88204 82107 75812 69384 62803 55984 52445 48774 44891 42816 40616 38197 35381 31590 27548
  737.00 1.538E-05 94213 88296 82185 75943 69506 62913 56086 52542 48862 44967 42893 40689 38277 35475 31723 27750
  739.00 1.512E-05 94312 88492 82474 76323 69974 63459 56693 53175 49517 45635 43565 41362 38942 36124 32341 28340
  741.00 1.489E-05 94426 88650 82740 76629 70383 63915 57193 53694 50040 46165 44090 41880 39449 36622 32814 28784
  743.00 1.533E-05 94325 88519 82518 76321 69993 63483 56719 53196 49537 45662 43594 41389 38976 36177 32420 28467
  745.00 1.532E-05 94321 88512 82507 76371 70104 63584 56841 53336 49687 45822 43760 41567 39151 36351 32604 28655
  747.00 1.554E-05 94337 88481 82432 76319 69949 63430 56667 53153 49498 45624 43565 41364 38958 36165 32439 28533
  749.00 1.549E-05 94319 88509 82569 76436 70174 63673 56946 53447 49806 45946 43880 41685 39270 36475 32731 28812
  751.00 1.564E-05 94373 88619 82673 76535 70269 63785 57052 53542 49898 46023 43964 41758 39348 36560 32832 28951
  753.00 1.581E-05 94371 88615 82606 76534 70209 63694 56977 53466 49810 45939 43877 41682 39273 36490 32783 28925
  755.00 1.594E-05 94354 88582 82622 76537 70201 63739 56995 53482 49831 45960 43902 41706 39297 36518 32823 28977
  757.00 1.588E-05 94395 88602 82746 76637 70403 63917 57217 53715 50076 46209 44150 41952 39547 36763 33054 29188
  759.00 1.582E-05 94437 88685 82807 76738 70480 64033 57332 53843 50209 46353 44292 42099 39697 36903 33180 29292
  761.00 1.587E-05 94392 88721 82798 76749 70573 64146 57442 53951 50321 46471 44411 42218 39811 37020 33277 29351
  763.00 1.601E-05 94441 88695 82823 76765 70518 64085 57383 53885 50237 46365 44297 42099 39675 36864 33092 29082
  765.00 1.607E-05 94462 88737 82887 76789 70566 64095 57393 53889 50243 46366 44294 42085 39658 36833 33012 28899
  767.00 1.534E-05 94524 88853 83116 77119 71056 64694 58103 54654 51056 47229 45176 42973 40548 37705 33814 29570
  769.00 1.613E-05 94482 88779 82889 76875 70614 64166 57477 53974 50329 46454 44383 42170 39733 36888 33019 28791
  771.00 1.574E-05 94473 88818 83037 77001 70839 64485 57834 54365 50743 46893 44828 42618 40184 37338 33443 29180
  773.00 1.605E-05 94517 88847 83053 77009 70841 64424 57769 54287 50648 46773 44704 42486 40037 37171 33259 28947
  775.00 1.588E-05 94521 88917 83186 77204 71096 64736 58092 54628 51008 47147 45076 42865 40422 37557 33634 29307
  777.00 1.638E-05 94505 88828 82967 76984 70757 64347 57637 54133 50488 46606 44530 42308 39866 37009 33114 28828
  779.00 1.634E-05 94553 88862 83048 77111 70930 64504 57834 54351 50716 46848 44780 42570 40135 37289 33415 29180
  781.00 1.635E-05 94557 88930 83180 77187 71070 64648 58018 54544 50917 47052 44985 42777 40343 37498 33621 29388
  783.00 1.617E-05 94620 88992 83302 77365 71243 64935 58312 54855 51249 47396 45337 43129 40693 37835 33933 29641
  785.00 1.621E-05 94571 89019 83282 77360 71252 64960 58322 54867 51258 47409 45349 43140 40697 37835 33905 29562
  787.00 1.657E-05 94569 88956 83223 77308 71153 64816 58196 54725 51104 47248 45184 42975 40543 37707 33850 29656
  789.00 1.650E-05 94545 88970 83273 77333 71212 64909 58321 54873 51267 47424 45364 43158 40727 37885 34012 29764
  791.00 1.627E-05 94653 89121 83405 77566 71481 65212 58691 55255 51666 47830 45771 43565 41125 38267 34352 30068
  793.00 1.616E-05 94740 89295 83663 77847 71906 65656 59183 55767 52197 48373 46318 44115 41677 38818 34913 30650
  795.00 1.602E-05 94694 89201 83645 77840 71848 65730 59238 55849 52297 48496 46454 44257 41829 38970 35050 30768
  797.00 1.661E-05 94642 89163 83504 77664 71644 65382 58838 55412 51830 48007 45960 43763 41343 38513 34666 30500
  799.00 1.661E-05 94702 89163 83504 77664 71644 65443 58886 55473 51896 48085 46039 43853 41439 38615 34780 30644
  801.00 1.649E-05 94724 89266 83687 77926 71983 65797 59290 55894 52335 48539 46495 44306 41892 39072 35246 31134
  803.00 1.655E-05 94743 89305 83686 77885 71903 65740 59257 55855 52296 48495 46459 44272 41861 39045 35215 31094
  805.00 1.650E-05 94727 89333 83758 78061 72121 65939 59515 56127 52576 48782 46745 44558 42145 39321 35497 31400
  807.00 1.662E-05 94705 89290 83694 77918 71961 65764 59320 55933 52389 48598 46564 44386 41980 39164 35343 31258
  809.00 1.642E-05 94762 89403 83922 78258 72351 66261 59866 56504 52990 49220 47192 45018 42619 39799 35974 31870
  811.00 1.665E-05 94775 89369 83844 78078 72192 66066 59682 56324 52799 49033 47003 44835 42432 39628 35832 31778
  813.00 1.686E-05 94781 89383 83808 78114 72183 66074 59668 56269 52740 48962 46934 44763 42372 39579 35813 31827
  815.00 1.686E-05 94781 89442 83926 78233 72301 66192 59786 56441 52918 49152 47123 44953 42562 39775 36008 32028
  817.00 1.689E-05 94790 89402 83896 78212 72351 66252 59858 56489 52972 49213 47194 45027 42641 39852 36092 32114
  819.00 1.599E-05 94934 89744 84365 78799 73108 67167 60913 57636 54196 50507 48518 46373 44003 41207 37398 33327
  821.00 1.653E-05 94858 89595 84211 78584 72777 66788 60442 57114 53618 49867 47852 45687 43291 40478 36673 32626
  823.00 1.666E-05 94958 89736 84334 78752 72989 66987 60684 57353 53860 50114 48097 45936 43541 40744 36969 32983
  825.00 1.685E-05 94837 89555 84095 78516 72700 66647 60297 56938 53442 49697 47685 45525 43139 40344 36570 32558
  827.00 1.714E-05 94866 89615 84131 78471 72637 66569 60210 56873 53361 49609 47590 45426 43046 40268 36529 32596
  829.00 1.709E-05 94909 89643 84201 78584 72733 66706 60328 57016 53517 49772 47759 45600 43218 40433 36688 32733
  831.00 1.677E-05 94931 89744 84317 78772 73047 67084 60763 57460 53977 50244 48235 46070 43679 40871 37054 32993
  833.00 1.657E-05 94931 89801 84430 78877 73205 67230 61014 57701 54243 50531 48527 46379 43995 41201 37405 33349
  835.00 1.684E-05 94952 89727 84323 78800 73040 67043 60808 57488 54020 50297 48296 46140 43753 40956 37150 33088
  837.00 1.697E-05 94932 89747 84325 78786 73011 67001 60695 57384 53901 50171 48161 46005 43618 40819 37024 32982
  839.00 1.617E-05 94991 89858 84539 79035 73346 67471 61243 57965 54521 50810 48813 46654 44261 41441 37582 33451
  841.00 1.709E-05 94968 89760 84377 78818 73025 67057 60737 57402 53920 50187 48174 46015 43628 40831 37039 32984
  843.00 1.651E-05 94973 89824 84494 78982 73228 67293 61054 57753 54288 50563 48558 46396 43998 41169 37286 33053
  845.00 1.704E-05 94953 89730 84390 78873 73122 67136 60857 57523 54038 50299 48281 46103 43685 40827 36860 32418
  847.00 1.693E-05 94979 89841 84525 79031 73361 67395 61134 57856 54383 50650 48630 46462 44052 41199 37271 32894
  849.00 1.718E-05 94994 89872 84517 78987 73283 67346 61059 57724 54243 50506 48492 46321 43912 41071 37148 32782
  851.00 1.644E-05 95134 90085 84854 79440 73844 67944 61740 58498 55043 51326 49313 47141 44720 41855 37877 33437
  853.00 1.731E-05 95032 89890 84575 79029 73310 67360 61121 57770 54310 50572 48556 46389 43980 41144 37239 32929
  855.00 1.634E-05 95165 90147 84945 79559 73990 68176 62056 58782 55355 51665 49663 47503 45098 42240 38286 33898
  857.00 1.755E-05 94986 89858 84501 79031 73276 67350 61083 57721 54268 50541 48530 46370 43977 41168 37322 33111
  859.00 1.727E-05 95078 90041 84771 79386 73712 67805 61610 58309 54876 51158 49149 46995 44598 41778 37915 33706
  861.00 1.727E-05 95078 90041 84829 79386 73712 67863 61610 58367 54910 51199 49201 47047 44661 41853 38008 33827
  863.00 1.748E-05 95080 89989 84725 79233 73570 67677 61442 58181 54731 51024 49027 46882 44502 41711 37900 33781
  865.00 1.771E-05 95031 89949 84698 79221 73574 67645 61434 58159 54681 50966 48967 46815 44444 41660 37877 33817
  867.00 1.629E-05 95273 90362 85267 79988 74524 68815 62738 59503 56114 52455 50473 48330 45942 43125 39239 35015
  869.00 1.682E-05 95184 90250 85077 79786 74257 68490 62366 59138 55737 52069 50089 47949 45577 42771 38930 34780
  871.00 1.748E-05 95137 90103 84954 79577 74027 68192 62014 58810 55366 51688 49703 47563 45200 42420 38638 34582
  873.00 1.756E-05 95159 90148 84966 79556 73975 68166 62016 58770 55325 51646 49658 47528 45159 42386 38610 34562
  875.00 1.752E-05 95205 90240 85103 79795 74201 68379 62215 58961 55559 51872 49880 47740 45371 42586 38807 34777
  877.00 1.763E-05 95122 90130 84912 79524 73965 68123 61997 58763 55355 51690 49711 47589 45235 42473 38712 34697
  879.00 1.766E-05 95187 90260 85108 79785 74236 68403 62288 59060 55623 51954 49972 47843 45487 42718 38969 34972
  881.00 1.691E-05 95328 90538 85512 80367 74985 69367 63394 60201 56883 53270 51313 49196 46836 44057 40237 36121
  883.00 1.743E-05 95238 90304 85198 79862 74355 68617 62536 59266 55904 52255 50281 48164 45812 43052 39306 35307
  885.00 1.776E-05 95158 90203 85079 79786 74212 68412 62275 59065 55659 51993 50017 47894 45541 42787 39054 35090
  887.00 1.756E-05 95273 90433 85364 80125 74601 68907 62813 59567 56196 52546 50569 48445 46088 43320 39562 35547
  889.00 1.800E-05 95222 90278 85111 79833 74278 68444 62333 59111 55667 52011 50033 47911 45556 42806 39083 35144
  891.00 1.812E-05 95143 90232 85099 79746 74172 68377 62252 58996 55574 51898 49923 47804 45458 42715 39012 35094
  893.00 1.779E-05 95222 90332 85273 79989 74480 68746 62676 59472 56093 52451 50483 48364 46015 43255 39505 35509
  895.00 1.772E-05 95260 90350 85327 80079 74605 68849 62810 59594 56230 52596 50626 48510 46163 43403 39656 35655
  897.00 1.790E-05 95196 90279 85251 79944 74469 68771 62682 59441 56089 52453 50486 48374 46034 43285 39553 35587
  899.00 1.804E-05 95233 90299 85255 79989 74446 68736 62639 59424 56042 52406 50438 48326 45987 43243 39523 35576
  901.00 1.722E-05 95412 90650 85714 80546 75203 69570 63589 60453 57114 53508 51556 49443 47096 44321 40517 36446
  903.00 1.790E-05 95251 90391 85363 80112 74637 68939 62849 59665 56313 52665 50704 48592 46257 43503 39771 35788
  905.00 1.835E-05 95204 90300 85232 79946 74387 68610 62507 59292 55913 52240 50267 48153 45820 43084 39390 35482
  907.00 1.827E-05 95238 90421 85386 80131 74658 68911 62835 59606 56212 52589 50619 48506 46163 43426 39732 35829
  909.00 1.765E-05 95354 90595 85666 80510 75127 69462 63513 60340 56941 53343 51382 49275 46929 44164 40402 36385
  911.00 1.786E-05 95353 90538 85610 80403 75028 69373 63382 60246 56887 53264 51316 49216 46881 44143 40414 36439
  913.00 1.824E-05 95285 90461 85417 80208 74726 69024 62993 59759 56414 52763 50806 48695 46365 43635 39934 36025
  915.00 1.825E-05 95288 90466 85425 80219 74795 69096 63068 59890 56493 52882 50926 48827 46499 43764 40060 36137
  917.00 1.829E-05 95243 90432 85402 80208 74795 69109 63095 59869 56534 52909 50951 48852 46528 43800 40104 36184
  919.00 1.853E-05 95251 90448 85429 80194 74744 69023 62925 59741 56341 52731 50772 48667 46336 43610 39935 36055
  921.00 1.819E-05 95327 90544 85596 80484 75096 69434 63441 60308 56954 53315 51358 49252 46916 44173 40434 36443
  923.00 1.841E-05 95437 90712 85714 80554 75122 69473 63389 60185 56817 53161 51195 49077 46735 43987 40255 36268
  925.00 1.819E-05 95382 90599 85706 80539 75206 69599 63606 60418 57064 53458 51501 49395 47059 44310 40566 36542
  927.00 1.832E-05 95360 90557 85590 80459 75055 69378 63373 60207 56878 53248 51294 49192 46856 44110 40366 36337
  929.00 1.829E-05 95298 90541 85621 80426 75068 69437 63423 60252 56916 53297 51345 49240 46905 44155 40399 36342
  931.00 1.859E-05 95320 90533 85530 80366 74987 69285 63260 60086 56751 53115 51157 49048 46719 43975 40253 36251
  933.00 1.855E-05 95310 90566 85606 80485 75094 69434 63450 60270 56927 53299 51342 49240 46906 44167 40442 36442
  935.00 1.851E-05 95300 90546 85629 80497 75095 69476 63479 60346 56996 53377 51426 49325 46996 44252 40519 36488
  937.00 1.829E-05 95407 90651 85730 80590 75232 69656 63696 60525 57190 53592 51640 49541 47206 44451 40683 36610
  939.00 1.861E-05 95379 90650 85707 80548 75175 69586 63568 60398 57066 53450 51499 49398 47071 44336 40618 36631
  941.00 1.810E-05 95525 90939 86133 81105 75856 70331 64475 61326 58011 54453 52514 50420 48088 45343 41586 37530
  943.00 1.867E-05 95394 90680 85753 80664 75308 69684 63739 60578 57204 53615 51650 49550 47225 44488 40777 36792
  945.00 1.823E-05 95447 90784 85957 80911 75645 70104 64180 61053 57762 54202 52266 50176 47855 45112 41366 37329
  947.00 1.871E-05 95350 90647 85783 80652 75307 69695 63763 60609 57296 53661 51737 49647 47328 44607 40909 36954
  949.00 1.883E-05 95327 90600 85714 80563 75252 69623 63675 60489 57143 53585 51614 49522 47207 44488 40797 36856
  951.00 1.875E-05 95413 90720 85813 80693 75413 69813 63840 60693 57387 53760 51845 49755 47440 44720 41029 37088
  953.00 1.874E-05 95411 90715 85859 80790 75454 69904 63927 60779 57471 53895 51953 49867 47556 44845 41158 37231
  955.00 1.843E-05 95551 90939 86110 81063 75746 70212 64243 61096 57786 54200 52263 50168 47846 45117 41394 37417
  957.00 1.852E-05 95464 90821 86015 80940 75702 70140 64255 61123 57829 54266 52333 50248 47937 45211 41496 37522
  959.00 1.893E-05 95404 90755 85843 80771 75489 69889 63973 60803 57475 53883 51955 49868 47554 44849 41178 37285
  961.00 1.866E-05 95498 90836 86013 80922 75670 70096 64202 61040 57717 54126 52197 50107 47792 45075 41383 37465
  963.00 1.877E-05 95525 90890 86095 81087 75812 70272 64411 61268 57965 54395 52445 50362 48055 45338 41662 37757
  965.00 1.829E-05 95517 90869 86113 81083 75834 70366 64516 61400 58119 54604 52685 50618 48321 45610 41914 37950
  967.00 1.840E-05 95543 90924 86087 81087 75815 70326 64457 61359 58043 54511 52603 50533 48234 45522 41832 37897
  969.00 1.882E-05 95484 90861 86026 81031 75717 70191 64293 61158 57811 54251 52317 50234 47922 45207 41536 37646
  971.00 1.868E-05 95503 90899 86081 81049 75803 70289 64400 61242 57976 54390 52484 50412 48116 45418 41761 37880
  973.00 1.855E-05 95472 90889 86092 81078 75849 70350 64528 61402 58113 54555 52631 50555 48248 45531 41833 37903
  975.00 1.860E-05 95484 90914 86129 81183 75968 70484 64624 61559 58226 54731 52785 50715 48414 45710 42027 38113
  977.00 1.874E-05 95518 90928 86179 81217 75987 70491 64674 61526 58271 54696 52775 50699 48388 45678 42001 38095
  979.00 1.840E-05 95543 90978 86196 81250 76087 70598 64783 61685 58424 54891 52951 50875 48565 45842 42136 38207
  981.00 1.903E-05 95533 90962 86180 81240 75985 70520 64635 61534 58224 54703 52759 50688 48392 45696 42049 38192
  983.00 1.890E-05 95503 90952 86190 81217 76032 70529 64709 61640 58360 54815 52894 50831 48540 45841 42180 38280
  985.00 1.914E-05 95559 90961 86207 81243 76019 70533 64681 61547 58255 54702 52769 50716 48422 45726 42085 38245
  987.00 1.902E-05 95584 91009 86330 81388 76183 70715 64879 61777 58517 54942 53049 50967 48675 45978 42334 38481
  989.00 1.907E-05 95543 90981 86261 81332 76141 70687 64866 61772 58469 54903 53015 50944 48652 45962 42318 38469
  991.00 1.910E-05 95550 91047 86335 81361 76178 70733 64921 61780 58534 54974 53037 50984 48691 46000 42361 38508
  993.00 1.919E-05 95519 90985 86243 81292 76081 70610 64773 61647 58364 54820 52892 50844 48557 45868 42230 38385
  995.00 1.922E-05 95578 90999 86264 81322 76119 70656 64776 61707 58429 54891 52966 50884 48595 45911 42284 38444
  997.00 1.926E-05 95535 91018 86293 81360 76168 70665 64849 61734 58463 54933 53011 50945 48660 45976 42352 38531
  999.00 1.925E-05 95584 91065 86338 81455 76260 70805 64987 61870 58597 55065 53143 51081 48795 46109 42483 38660
 1002.50 1.923E-05 95580 91056 86375 81435 76235 70827 65003 61882 58606 55070 53146 51102 48814 46126 42491 38638
 1007.50 1.920E-05 95625 91198 86510 81615 76458 70990 65208 62083 58854 55312 53385 51328 49036 46349 42708 38844
 1012.50 1.935E-05 95659 91163 86460 81602 76434 71008 65220 62119 58863 55349 53437 51359 49075 46393 42770 38946
 1017.50 1.927E-05 95693 91230 86611 81733 76648 71251 65490 62429 59159 55631 53710 51671 49388 46705 43067 39216
 1022.50 1.936E-05 95661 91271 86622 81767 76653 71281 65548 62448 59194 55682 53771 51756 49452 46772 43151 39313
 1027.50 1.952E-05 95697 91240 86629 81762 76639 71260 65471 62398 59119 55635 53689 51639 49375 46701 43089 39283
 1032.50 1.933E-05 95706 91309 86705 81893 76824 71443 65753 62649 59441 55923 54009 51992 49700 47020 43389 39550
 1037.50 1.937E-05 95715 91327 86784 81982 76923 71554 65823 62777 59577 56066 54156 52091 49819 47135 43505 39659
 1042.50 1.963E-05 95670 91289 86704 81864 76821 71421 65665 62608 59399 55884 53948 51910 49648 46979 43377 39567
 1047.50 1.953E-05 95699 91398 86841 82028 77010 71685 65950 62878 59652 56170 54275 52227 49933 47261 43651 39836
 1052.50 1.972E-05 95740 91379 86815 81998 76978 71602 65872 62830 59584 56085 54209 52130 49868 47201 43605 39817
 1057.50 1.960E-05 95816 91480 86939 82143 77143 71837 66122 63061 59847 56378 54439 52398 50143 47474 43862 40056
 1062.50 1.969E-05 95785 91468 86948 82224 77197 71915 66227 63179 59929 56425 54545 52514 50234 47572 43972 40183
 1067.50 1.953E-05 95904 91654 87148 82437 77471 72197 66513 63492 60266 56784 54890 52842 50568 47890 44265 40430
 1072.50 1.969E-05 95886 91569 87100 82377 77349 72067 66379 63332 60132 56628 54749 52717 50422 47755 44144 40345
 1077.50 1.962E-05 95872 91641 87156 82467 77523 72273 66616 63609 60398 56932 55046 53007 50749 48089 44490 40693
 1082.50 1.940E-05 95979 91753 87320 82680 77784 72629 67010 64021 60825 57371 55515 53454 51222 48567 44964 41149
 1087.50 1.963E-05 95925 91747 87315 82680 77789 72542 66938 63933 60723 57259 55374 53337 51095 48436 44840 41055
 1092.50 1.993E-05 95936 91721 87306 82639 77672 72403 66734 63673 60462 56949 55043 52985 50728 48083 44506 40763
 1097.50 1.978E-05 95956 91759 87361 82760 77856 72649 67037 64055 60819 57381 55460 53438 51163 48529 44944 41188
 1102.50 2.001E-05 95902 91654 87256 82609 77661 72414 66767 63768 60570 57071 55172 53123 50875 48241 44678 40955
 1107.50 2.017E-05 95885 91671 87258 82548 77640 72385 66683 63659 60436 56966 55082 53000 50768 48111 44556 40848
 1112.50 2.015E-05 95931 91712 87295 82680 77767 72506 66849 63821 60596 57122 55236 53201 50918 48288 44734 41022
 1117.50 2.008E-05 95966 91783 87400 82769 77839 72610 66982 63994 60757 57271 55378 53337 51096 48441 44880 41160
 1122.50 2.025E-05 95951 91802 87407 82765 77827 72593 66914 63901 60691 57185 55309 53284 51012 48360 44810 41121
 1127.50 1.994E-05 95988 91876 87563 82999 78134 72969 67402 64393 61234 57723 55868 53811 51555 48922 45361 41635
 1132.50 2.016E-05 95982 91865 87500 82887 78026 72817 67212 64187 61012 57490 55605 53571 51339 48676 45119 41419
 1137.50 2.006E-05 95962 91874 87537 82951 78066 72881 67298 64307 61117 57627 55783 53739 51496 48843 45294 41590
 1142.50 1.990E-05 96080 91960 87688 83116 78291 73166 67588 64623 61407 57990 56080 54070 51809 49191 45638 41925
 1147.50 2.041E-05 95982 91818 87506 82901 78001 72807 67173 64135 60902 57423 55561 53503 51249 48594 45056 41391
 1152.50 2.054E-05 96008 91918 87537 82960 78092 72834 67186 64167 60954 57449 55550 53505 51217 48593 45063 41417
 1157.50 2.040E-05 96029 91961 87647 83088 78235 73039 67451 64412 61225 57745 55833 53824 51569 48907 45368 41701
 1162.50 2.017E-05 96083 92018 87754 83193 78384 73228 67625 64650 61428 57957 56073 54041 51810 49147 45607 41939
 1167.50 2.040E-05 96078 92010 87745 83186 78333 73137 67549 64510 61324 57794 55931 53873 51618 48966 45426 41770
 1172.50 2.072E-05 96042 91988 87645 83108 78234 72973 67326 64286 61052 57577 55647 53620 51351 48697 45179 41559
 1177.50 2.041E-05 96129 92063 87800 83293 78442 73297 67663 64674 61440 57962 56051 54042 51788 49143 45595 41945
 1182.50 2.033E-05 96163 92179 87949 83473 78701 73586 68028 65027 61830 58337 56468 54402 52140 49533 45971 42312
 1187.50 2.030E-05 96158 92167 87931 83448 78621 73498 67931 64926 61724 58227 56305 54286 52020 49360 45847 42212
 1192.50 2.090E-05 96029 92010 87703 83158 78325 73110 67464 64402 61148 57656 55742 53684 51388 48756 45244 41651
 1197.50 2.011E-05 96221 92292 88165 83739 79015 73943 68424 65440 62258 58777 56887 54848 52611 49925 46355 42665
 1202.50 2.074E-05 96143 92189 87994 83510 78689 73529 67936 64899 61668 58149 56268 54195 51929 49277 45762 42155
 1207.50 2.063E-05 96219 92244 88027 83568 78817 73679 68056 65051 61852 58362 56423 54387 52109 49443 45928 42322
 1212.50 2.092E-05 96128 92161 87954 83461 78633 73470 67830 64818 61568 58031 56119 54063 51769 49092 45593 42012
 1217.50 2.113E-05 96119 92097 87885 83341 78514 73261 67582 64553 61287 57738 55797 53762 51443 48793 45305 41742
 1222.50 2.114E-05 96121 92148 87890 83396 78571 73368 67692 64617 61353 57805 55913 53832 51561 48865 45374 41816
 1227.50 2.110E-05 96161 92227 88009 83507 78720 73507 67867 64787 61517 58009 56066 53981 51706 49052 45540 41976
 1232.50 2.116E-05 96172 92202 87996 83507 78686 73440 67817 64745 61484 57940 56002 53923 51654 49008 45477 41923
 1237.50 2.125E-05 96188 92235 88000 83529 78729 73506 67812 64753 61459 57929 56000 53929 51624 48941 45435 41892
 1242.50 2.116E-05 96219 92297 88091 83648 78828 73677 68006 64934 61673 58129 56191 54112 51843 49197 45662 42117
 1247.50 2.136E-05 96255 92275 88109 83614 78792 73549 67884 64794 61517 57912 55993 53886 51592 48923 45403 41868
 1252.50 2.125E-05 96235 92329 88141 83671 78871 73694 68000 64941 61647 58071 56141 54071 51765 49082 45562 42014
 1257.50 2.143E-05 96220 92301 88147 83668 78861 73635 67942 64862 61549 57956 55996 53896 51610 48903 45404 41871
 1262.50 2.143E-05 96220 92301 88147 83714 78908 73682 67989 64909 61596 58003 56090 53990 51657 48997 45455 41923
 1267.50 2.135E-05 96253 92365 88197 83794 79016 73817 68150 65059 61780 58220 56253 54192 51850 49180 45644 42112
 1272.50 2.156E-05 96197 92301 88173 83720 78896 73701 67996 64889 61596 57978 56030 53896 51577 48887 45380 41860
 1277.50 2.170E-05 96221 92350 88203 83733 78940 73687 67972 64839 61521 57926 55945 53825 51475 48802 45272 41774
 1282.50 2.103E-05 96529 92772 88778 84451 79743 74608 68902 65811 62530 58916 56966 54826 52496 49786 46186 42592
 1287.50 2.153E-05 96331 92476 88388 83929 79192 73990 68277 65165 61867 58244 56247 54157 51788 49094 45546 42016
 1292.50 2.143E-05 96314 92441 88334 83901 79141 73962 68269 65189 61876 58283 56323 54223 51890 49183 45646 42105
 1297.50 2.182E-05 96288 92438 88359 83914 79148 73923 68148 65032 61687 58020 56049 53896 51558 48854 45302 41810
 1302.50 2.171E-05 96361 92538 88439 84063 79272 74067 68356 65223 61907 58222 56287 54123 51773 49056 45518 42018
 1307.50 2.194E-05 96308 92525 88423 84002 79216 73974 68232 65087 61714 58022 56062 53920 51550 48815 45255 41773
 1312.50 2.141E-05 96404 92620 88557 84166 79449 74311 68613 65530 62214 58617 56656 54554 52219 49510 45979 42475
 1317.50 2.162E-05 96392 92646 88575 84228 79510 74329 68640 65495 62165 58511 56522 54394 52035 49306 45772 42271
 1322.50 2.201E-05 96365 92594 88505 84144 79373 74148 68378 65198 61836 58110 56111 53975 51567 48841 45261 41776
 1327.50 2.177E-05 96417 92650 88654 84290 79559 74368 68627 65503 62150 58475 56454 54295 51906 49150 45590 42081
 1332.50 2.199E-05 96407 92678 88631 84266 79536 74307 68531 65393 61983 58299 56253 54116 51705 48931 45371 41887
 1337.50 2.206E-05 96419 92656 88667 84316 79601 74388 68586 65458 62058 58341 56301 54125 51723 48957 45376 41877
 1342.50 2.231E-05 96414 92649 88660 84267 79516 74272 68445 65262 61811 58046 56029 53832 51412 48633 45047 41551
 1347.50 2.231E-05 96459 92739 88705 84357 79650 74406 68579 65397 61945 58180 56163 53922 51502 48723 45137 41645
 1352.50 2.238E-05 96425 92717 88740 84406 79625 74397 68588 65371 61930 58132 56077 53887 51430 48660 45040 41555
 1357.50 2.216E-05 96525 92825 88854 84567 79874 74684 68908 65749 62319 58574 56498 54287 51850 49052 45442 41945
 1362.50 2.219E-05 96485 92835 88869 84543 79811 74628 68815 65615 62145 58405 56332 54123 51690 48851 45246 41721
 1367.50 2.243E-05 96523 92867 88899 84619 79893 74721 68881 65671 62193 58404 56309 54079 51627 48774 45118 41636
 1372.50 2.261E-05 96550 92923 88987 84697 80009 74790 68908 65679 62185 58337 56214 53958 51482 48651 44980 41490
 1377.50 2.258E-05 96546 92914 89017 84721 80027 74801 68955 65722 62223 58370 56289 54030 51550 48671 44996 41528
 1382.50 2.271E-05 96565 92955 89036 84764 80097 74857 69000 65742 62219 58344 56275 53985 51475 48613 44914 41435
 1387.50 2.261E-05 96550 92923 89031 84741 80053 74834 68996 65723 62229 58381 56258 54003 51482 48607 44892 41411
 1392.50 2.287E-05 96589 93004 89112 84871 80192 74945 69086 65807 62265 58373 56231 53913 51377 48491 44775 41286
 1397.50 2.294E-05 96643 93069 89189 84917 80253 75022 69137 65867 62293 58370 56234 53923 51395 48474 44725 41251
 1402.50 2.270E-05 96652 93128 89251 85066 80396 75242 69383 66123 62599 58678 56564 54273 51718 48811 45066 41542
 1407.50 2.305E-05 96659 93102 89284 85076 80390 75184 69284 65987 62430 58482 56312 53970 51410 48460 44685 41197
 1412.50 2.289E-05 96680 93185 89384 85190 80603 75404 69550 66273 62691 58759 56619 54303 51726 48755 44998 41459
 1417.50 2.323E-05 96685 93198 89367 85149 80499 75291 69350 66035 62462 58459 56263 53896 51313 48343 44511 41012
 1422.50 2.293E-05 96729 93284 89533 85390 80811 75665 69821 66507 62931 59006 56825 54470 51853 48888 45050 41518
 1427.50 2.252E-05 96758 93295 89565 85435 80906 75799 69982 66741 63188 59281 57105 54796 52220 49245 45471 41901
 1432.50 2.325E-05 96731 93290 89548 85376 80817 75613 69720 66409 62796 58753 56559 54151 51527 48516 44645 41110
 1437.50 2.346E-05 96718 93265 89514 85379 80733 75575 69608 66283 62617 58568 56351 53922 51279 48252 44373 40818
 1442.50 2.287E-05 96896 93529 89856 85833 81329 76257 70398 67119 63533 59510 57324 54919 52252 49191 45300 41710
 1447.50 2.352E-05 96811 93410 89668 85587 81037 75850 69940 66582 62925 58844 56590 54167 51488 48384 44473 40876
 1452.50 2.322E-05 96899 93583 89922 85874 81395 76314 70413 67140 63480 59432 57149 54737 52024 48923 44961 41352
 1457.00 2.341E-05 96882 93550 89876 85818 81290 76164 70269 66937 63264 59205 56941 54507 51773 48654 44682 41076
 1462.00 2.366E-05 96872 93533 89899 85883 81361 76247 70330 66948 63271 59129 56847 54396 51648 48478 44463 40850
 1467.50 2.373E-05 96882 93595 89971 85967 81458 76359 70417 67046 63380 59208 56932 54446 51665 48462 44458 40796
 1472.50 2.344E-05 96971 93686 90102 86135 81698 76621 70734 67406 63737 59599 57338 54821 52090 48891 44838 41173
 1477.50 2.361E-05 96950 93731 90174 86192 81787 76747 70860 67514 63829 59678 57349 54850 52054 48835 44769 41063
 1482.50 2.374E-05 97009 93766 90227 86310 81887 76832 70935 67607 63901 59688 57372 54844 52022 48778 44693 40956
 1487.50 2.319E-05 97068 93877 90384 86503 82147 77188 71410 68090 64467 60328 58042 55541 52781 49547 45451 41708
 1492.50 2.414E-05 97017 93828 90307 86413 81980 76926 71044 67647 63877 59652 57249 54681 51823 48509 44283 40539
 1497.50 2.391E-05 97072 93936 90422 86575 82225 77206 71351 67963 64241 60017 57633 55082 52196 48850 44668 40866
 1502.50 2.254E-05 97072 93966 90506 86690 82431 77595 71961 68767 65262 61269 59006 56610 53904 50710 46628 42897
 1507.50 2.328E-05 97165 94072 90636 86856 82603 77706 71993 68686 65034 60868 58548 56014 53179 49871 45619 41787
 1512.50 2.418E-05 97146 94045 90653 86807 82506 77543 71712 68321 64557 60256 57858 55252 52316 48883 44541 40699
 1517.50 2.425E-05 97155 94062 90639 86845 82557 77608 71753 68371 64577 60289 57856 55216 52247 48825 44454 40561
 1522.50 2.416E-05 97268 94247 90894 87169 82947 78063 72268 68916 65149 60844 58444 55795 52773 49296 44868 40931
 1527.50 2.443E-05 97257 94228 90913 87188 82972 78060 72247 68891 65084 60745 58289 55628 52599 49079 44576 40626
 1532.50 2.438E-05 97252 94299 90976 87285 83101 78261 72477 69114 65340 60993 58532 55865 52789 49262 44709 40710
 1537.50 2.459E-05 97275 94347 91094 87434 83245 78447 72672 69296 65514 61122 58642 55917 52867 49248 44652 40598
 1542.50 2.476E-05 97334 94426 91155 87520 83401 78554 72779 69426 65590 61187 58683 55937 52827 49192 44548 40469
 1547.50 2.474E-05 97373 94462 91269 87631 83549 78739 73040 69685 65885 61479 59014 56225 53112 49475 44786 40622
 1552.50 2.447E-05 97385 94524 91377 87781 83735 78995 73355 70045 66285 61913 59461 56682 53576 49939 45198 41030
 1557.50 2.449E-05 97387 94569 91384 87832 83789 79094 73459 70151 66354 61984 59535 56758 53614 49898 45120 40874
 1562.50 2.484E-05 97424 94605 91465 87923 83857 79147 73470 70129 66345 61916 59380 56602 53422 49638 44807 40499
 1567.50 2.439E-05 97458 94670 91554 88110 84133 79500 73965 70685 66954 62649 60148 57401 54244 50513 45674 41369
 1572.50 2.469E-05 97489 94694 91616 88173 84204 79587 73998 70676 66910 62535 60024 57230 54030 50223 45322 40988
 1577.50 2.359E-05 97457 94701 91649 88215 84315 79780 74311 71132 67486 63247 60788 58075 54981 51293 46460 42081
 1582.50 2.445E-05 97505 94806 91779 88344 84458 79918 74397 71166 67444 63067 60573 57791 54560 50757 45767 41268
 1587.50 2.386E-05 97611 94929 91995 88642 84870 80427 75105 71920 68315 64082 61609 58885 55742 51970 46982 42456
 1592.50 2.448E-05 97549 94894 91912 88562 84763 80310 74877 71691 68056 63725 61234 58456 55270 51430 46364 41789
 1597.50 2.472E-05 97573 94903 91950 88633 84790 80299 74838 71602 67880 63471 60963 58091 54814 50890 45712 41100
 1605.00 2.485E-05 97626 95050 92193 88934 85191 80805 75493 72314 68652 64306 61811 58954 55694 51751 46559 41851
 1615.00 2.471E-05 97693 95144 92351 89154 85471 81182 75880 72764 69122 64792 62282 59450 56172 52206 46945 42169
 1625.00 2.485E-05 97666 95131 92314 89135 85513 81207 75976 72837 69256 64950 62455 59638 56338 52354 47082 42213
 1635.00 2.479E-05 97741 95280 92537 89472 85881 81686 76523 73457 69867 65591 63130 60266 56999 52965 47600 42638
 1645.00 2.461E-05 97765 95368 92645 89598 86063 81877 76757 73669 70093 65827 63348 60504 57213 53230 47826 42869
 1655.00 2.467E-05 97690 95257 92501 89420 85853 81678 76571 73490 69923 65707 63194 60397 57114 53141 47750 42805
 1665.00 2.448E-05 97712 95261 92525 89420 85866 81659 76511 73448 69894 65645 63194 60376 57108 53145 47794 42892
 1675.00 2.396E-05 97788 95326 92654 89566 86018 81845 76753 73706 70159 65985 63523 60726 57471 53548 48247 43406
 1685.00 2.385E-05 97862 95472 92830 89811 86331 82222 77191 74130 70650 66415 63983 61174 57904 53962 48637 43690
 1695.00 2.404E-05 97754 95300 92596 89517 85982 81822 76705 73669 70133 65890 63436 60649 57404 53453 48128 43261
 1705.00 2.350E-05 97745 95319 92638 89574 86043 81915 76894 73872 70383 66213 63787 61064 57830 53957 48723 43872
 1715.00 2.332E-05 97727 95326 92624 89580 86063 81947 76930 73928 70455 66338 63894 61192 57976 54117 48885 44039
 1725.00 2.307E-05 97746 95362 92674 89640 86129 82011 77026 74036 70568 66450 64023 61292 58127 54270 49068 44300
 1735.00 2.277E-05 97936 95608 93061 90119 86737 82740 77778 74791 71322 67194 64778 62011 58849 54941 49671 44796
 1745.00 2.275E-05 97758 95385 92747 89758 86286 82198 77231 74242 70769 66681 64264 61538 58374 54549 49363 44571
 1755.00 2.264E-05 97792 95406 92712 89664 86219 82111 77120 74117 70671 66564 64178 61484 58304 54505 49337 44611
 1765.00 2.251E-05 97779 95380 92714 89738 86273 82186 77210 74234 70813 66726 64327 61617 58463 54642 49534 44780
 1775.00 2.222E-05 97795 95410 92709 89694 86229 82178 77228 74257 70837 66787 64401 61746 58641 54860 49775 45050
 1785.00 2.219E-05 97792 95403 92790 89770 86345 82289 77332 74403 70978 66922 64534 61875 58765 54935 49842 45110
 1795.00 2.196E-05 97769 95401 92714 89709 86293 82240 77277 74317 70947 66894 64526 61885 58789 55009 49954 45264
 1805.00 2.170E-05 97742 95392 92719 89724 86267 82212 77281 74332 70968 66912 64608 61935 58848 55115 50092 45442
 1815.00 2.142E-05 97946 95705 93137 90289 86928 82960 78105 75163 71755 67740 65359 62698 59570 55789 50654 45952
 1825.00 2.129E-05 97792 95491 92860 89901 86519 82527 77642 74730 71348 67356 65054 62424 59371 55613 50634 45970
 1835.00 2.112E-05 97775 95407 92756 89773 86364 82339 77462 74574 71212 67235 64915 62311 59280 55587 50616 46046
 1845.00 2.073E-05 97781 95417 92812 89822 86445 82441 77617 74723 71442 67487 65219 62663 59672 56006 51134 46585
 1855.00 2.082E-05 97791 95437 92843 89866 86503 82517 77666 74784 71470 67531 65226 62632 59606 55956 51009 46422
 1865.00 2.041E-05 97844 95492 92896 89956 86575 82656 77854 75012 71730 67810 65556 63008 60020 56394 51543 46982
 1875.00 1.988E-05 98089 95976 93612 90895 87777 84004 79376 76559 73290 69416 67153 64588 61569 57847 52867 48184
 1885.00 2.022E-05 97873 95549 92977 90059 86696 82740 77943 75124 71810 67953 65678 63106 60138 56528 51632 47117
 1895.00 1.957E-05 97803 95503 92897 89985 86663 82780 78028 75217 72049 68217 66019 63516 60654 57128 52376 47925
 1905.00 1.996E-05 97846 95491 92936 89980 86673 82715 77956 75100 71844 67986 65731 63176 60220 56613 51804 47295
 1915.00 1.973E-05 97821 95489 92904 90015 86670 82767 78003 75165 71921 68069 65839 63305 60365 56817 52002 47557
 1925.00 1.962E-05 97808 95515 92915 90010 86697 82773 78033 75229 71967 68145 65902 63405 60499 56932 52141 47671
 1935.00 1.918E-05 97810 95516 92909 90042 86705 82847 78102 75339 72106 68352 66163 63660 60792 57299 52607 48217
 1945.00 1.880E-05 98032 95851 93457 90638 87447 83670 78989 76223 73032 69202 67021 64521 61596 58085 53298 48830
 1955.00 1.904E-05 97899 95588 93015 90126 86817 82931 78204 75420 72216 68435 66229 63761 60872 57353 52626 48256
 1965.00 1.893E-05 97834 95563 93027 90174 86846 83043 78341 75594 72372 68621 66455 63973 61067 57581 52879 48473
 1975.00 1.853E-05 97841 95521 92984 90124 86832 83001 78359 75607 72477 68753 66595 64112 61306 57852 53206 48851
 1985.00 1.848E-05 97836 95509 92965 90043 86742 82900 78193 75433 72240 68507 66342 63907 61093 57684 53047 48739
 1995.00 1.843E-05 97830 95496 93001 90125 86815 83017 78351 75583 72436 68692 66522 64026 61205 57786 53120 48801
 2005.00 1.853E-05 97841 95575 93038 90178 86940 83108 78467 75715 72531 68753 66595 64166 61306 57798 53130 48764
 2015.00 1.844E-05 97831 95553 93004 90184 86931 83080 78416 75651 72451 68709 66540 64046 61226 57755 53064 48720
 2025.00 1.808E-05 97898 95631 93086 90210 87002 83131 78540 75774 72622 68916 66759 64381 61560 58131 53507 49204
 2035.00 1.792E-05 97935 95647 93192 90346 87165 83371 78795 76116 72991 69308 67188 64732 61942 58538 53923 49609
 2045.00 1.799E-05 97832 95553 93052 90217 86993 83157 78599 75875 72707 68983 66870 64425 61645 58199 53585 49288
 2055.00 1.781E-05 97866 95564 93094 90286 87030 83268 78664 75912 72824 69118 66985 64570 61763 58394 53784 49506
 2065.00 1.756E-05 97893 95672 93166 90376 87130 83371 78815 76139 73064 69419 67255 64863 62130 58713 54174 49915
 2075.00 1.750E-05 97886 95657 93143 90343 87143 83371 78857 76114 73029 69371 67257 64857 62114 58743 54166 49914
 2085.00 1.737E-05 97870 95625 93092 90328 87104 83362 78814 76108 72999 69372 67242 64882 62119 58722 54203 49971
 2095.00 1.707E-05 97832 95606 93146 90334 87112 83421 78910 76216 73169 69537 67487 65144 62390 59051 54605 50428
 2105.00 1.712E-05 97897 95678 93224 90421 87208 83470 78914 76227 73189 69568 67465 65070 62325 58995 54468 50269
 2115.00 1.694E-05 97875 95632 93152 90378 87190 83412 78926 76210 73141 69540 67473 65112 62397 59091 54610 50443
 2125.00 1.684E-05 97862 95606 93112 90380 87173 83432 78979 76306 73219 69656 67577 65202 62530 59198 54733 50564
 2135.00 1.677E-05 97913 95707 93262 90459 87299 83602 79129 76446 73405 69827 67740 65355 62612 59320 54842 50668
 2145.00 1.664E-05 97897 95673 93209 90445 87320 83594 79087 76442 73438 69832 67788 65445 62740 59429 54976 50817
 2155.00 1.653E-05 97822 95644 93164 90442 87235 83545 79068 76407 73382 69812 67756 65396 62734 59425 54991 50853
 2165.00 1.618E-05 98146 96106 93820 91224 88195 84611 80223 77627 74598 71014 68912 66564 63844 60519 56020 51817
 2175.00 1.615E-05 97957 95789 93313 90588 87430 83777 79381 76780 73746 70217 68173 65882 63220 59944 55554 51443
 2185.00 1.608E-05 97948 95771 93346 90609 87500 83831 79415 76803 73818 70274 68284 65983 63308 60037 55653 51542
 2195.00 1.601E-05 97876 95628 93192 90443 87320 83635 79200 76577 73641 70081 68082 65771 63148 59900 55553 51480
 2205.00 1.563E-05 97889 95713 93218 90467 87332 83621 79207 76647 73640 70186 68202 65899 63301 60134 55867 51868
 2215.00 1.581E-05 97913 95699 93295 90576 87476 83808 79443 76850 73877 70335 68311 66034 63378 60177 55825 51758
 2225.00 1.552E-05 97938 95747 93299 90528 87371 83698 79317 76740 73776 70296 68299 66044 63415 60238 55947 51914
 2235.00 1.546E-05 97930 95731 93338 90556 87451 83829 79431 76908 73933 70440 68499 66235 63609 60440 56164 52154
 2245.00 1.537E-05 97918 95771 93364 90631 87508 83865 79506 76903 73975 70527 68510 66298 63682 60520 56252 52245
 2255.00 1.531E-05 97975 95820 93403 90725 87655 84063 79686 77139 74200 70738 68713 66492 63886 60712 56427 52410
 2265.00 1.507E-05 97877 95753 93298 90577 87525 83875 79562 76974 74121 70670 68679 66490 63895 60770 56556 52595
 2275.00 1.512E-05 97950 95767 93386 90675 87632 83995 79696 77116 74206 70767 68783 66601 63975 60820 56561 52573
 2285.00 1.487E-05 97983 95831 93477 90787 87693 84129 79825 77337 74445 71015 69065 66866 64304 61190 56980 53026
 2295.00 1.378E-05 97823 95428 92816 89913 86720 83019 78592 76052 73222 69884 67975 65827 63345 60312 56161 52097
 2305.00 1.428E-05 97829 95588 93137 90336 87185 83543 79202 76611 73669 70308 68326 66120 63571 60469 56275 52290
 2315.00 1.426E-05 97896 95652 93198 90393 87307 83661 79243 76718 73843 70407 68457 66262 63710 60617 56445 52475
 2325.00 1.309E-05 97785 95416 92819 89916 86707 83040 78686 76173 73338 70053 68167 66058 63621 60649 56578 52559
 2335.00 1.360E-05 97868 95588 93088 90294 87132 83456 79118 76544 73750 70397 68493 66353 63882 60890 56824 52890
 2345.00 1.386E-05 97908 95599 93146 90332 87157 83478 79076 76551 73665 70231 68276 66082 63550 60476 56328 52345
 2355.00 1.266E-05 97788 95340 92733 89889 86651 82938 78641 76161 73373 70150 68310 66240 63855 60948 56943 52915
 2365.00 1.336E-05 97829 95509 92964 90195 86976 83308 78967 76422 73563 70240 68338 66205 63743 60749 56684 52732
 2375.00 1.344E-05 97917 95610 93155 90327 87128 83482 79092 76563 73668 70320 68393 66235 63743 60722 56622 52634
 2385.00 1.239E-05 97821 95400 92736 89911 86683 83051 78789 76352 73608 70444 68636 66610 64270 61412 57450 53430
 2395.00 1.296E-05 97840 95448 92901 90123 86883 83256 78935 76443 73634 70370 68503 66412 64005 61073 57068 53140
 2405.00 1.310E-05 97863 95573 93130 90305 87176 83588 79237 76794 73931 70634 68740 66618 64160 61176 57122 53160
 2415.00 1.229E-05 97722 95362 92758 89910 86656 83076 78796 76355 73621 70472 68674 66656 64329 61489 57575 53605
 2425.00 1.264E-05 97864 95491 92959 90190 87025 83386 79114 76669 73900 70696 68861 66804 64438 61551 57611 53718
 2435.00 1.276E-05 97884 95690 93182 90439 87304 83777 79467 77030 74240 70995 69130 67030 64616 61677 57672 53754
 2445.00 1.229E-05 97803 95525 92921 90073 86900 83320 79129 76705 73979 70830 69032 67022 64695 61871 57974 54052
 2455.00 1.221E-05 97871 95496 92957 90172 86978 83456 79247 76830 74120 70983 69189 67191 64873 62056 58190 54308
 2465.00 1.256E-05 97930 95701 93232 90446 87341 83758 79562 77102 74323 71099 69252 67174 64785 61879 57930 54076
 2475.00 1.225E-05 97878 95592 93143 90367 87265 83673 79527 77110 74392 71249 69445 67420 65086 62237 58335 54457
 2485.00 1.191E-05 97817 95550 92947 90176 86986 83459 79303 76919 74249 71184 69446 67490 65248 62519 58766 54962
 2495.00 1.220E-05 97951 95656 93197 90410 87295 83770 79582 77164 74434 71270 69467 67443 65107 62270 58393 54549
 2505.00 1.234E-05 97893 95705 93274 90600 87520 84036 79911 77496 74773 71605 69789 67747 65381 62512 58598 54773
 2515.00 1.184E-05 97889 95524 92990 90203 87078 83488 79316 76917 74240 71149 69392 67432 65169 62432 58666 54882
 2525.00 1.207E-05 97929 95692 93206 90472 87407 83844 79702 77291 74582 71442 69644 67630 65319 62502 58666 54872
 2535.00 1.206E-05 97927 95771 93367 90630 87562 84080 79967 77579 74876 71741 69942 67935 65605 62786 58939 55158
 2545.00 1.186E-05 97892 95700 93255 90556 87437 83980 79882 77513 74840 71754 69992 68019 65742 62976 59199 55464
 2555.00 1.182E-05 97970 95770 93316 90609 87563 84036 79915 77530 74848 71751 69983 67995 65719 62953 59179 55440
 2565.00 1.180E-05 98051 95847 93390 90763 87712 84288 80212 77847 75169 72076 70305 68322 66025 63246 59458 55720
 2575.00 1.186E-05 97976 95784 93423 90725 87774 84275 80194 77825 75143 72032 70245 68246 65936 63128 59300 55565
 2585.00 1.151E-05 97915 95743 93310 90617 87576 84153 80104 77767 75143 72120 70391 68454 66221 63510 59809 56116
 2595.00 1.163E-05 97936 95787 93379 90714 87618 84205 80129 77773 75125 72055 70301 68332 66071 63319 59579 55890
 2605.00 1.164E-05 98024 95790 93471 90808 87801 84373 80318 77964 75309 72234 70473 68497 66220 63454 59691 55997
 2615.00 1.156E-05 98010 95848 93426 90830 87803 84386 80329 77976 75329 72258 70493 68529 66263 63512 59775 56107
 2625.00 1.133E-05 98147 96117 93822 91350 88438 85084 81103 78782 76152 73098 71350 69391 67132 64387 60653 56973
 2635.00 1.140E-05 98070 95877 93596 90965 87982 84623 80632 78316 75702 72675 70939 68991 66746 64018 60298 56658
 2645.00 1.132E-05 98057 95936 93640 91078 88136 84770 80795 78489 75892 72871 71148 69214 66979 64267 60574 56970
 2655.00 1.128E-05 98050 95922 93617 91046 88094 84725 80754 78449 75842 72828 71108 69176 66941 64229 60550 56941
 2665.00 1.109E-05 98106 95942 93688 91073 88161 84815 80866 78584 76014 73039 71335 69432 67241 64572 60947 57385
 2675.00 1.127E-05 98048 96007 93700 91127 88252 84907 80941 78634 76025 72999 71260 69308 67063 64330 60639 57045
 2685.00 1.121E-05 98037 95897 93577 90990 88118 84764 80794 78492 75888 72872 71142 69197 66958 64246 60562 56985
 2695.00 1.110E-05 98018 95946 93604 90991 88117 84766 80811 78514 75928 72919 71198 69270 67054 64360 60703 57144
 2705.00 1.107E-05 98103 96025 93677 91147 88248 84914 80976 78690 76107 73108 71391 69458 67236 64544 60894 57344
 2715.00 1.101E-05 98093 96004 93733 91190 88329 85014 81090 78810 76231 73243 71517 69591 67366 64668 61008 57457
 2725.00 1.095E-05 98082 95982 93790 91224 88365 85068 81169 78904 76338 73361 71653 69735 67516 64831 61196 57671
 2735.00 1.089E-05 97980 95960 93664 91139 88264 84959 81047 78779 76208 73223 71515 69605 67392 64720 61093 57576
 2745.00 1.086E-05 98066 95948 93738 91206 88361 85064 81169 78904 76335 73361 71657 69733 67523 64843 61215 57707
 2755.00 1.080E-05 98056 96111 93889 91361 88546 85296 81435 79185 76630 73667 71963 70046 67833 65157 61519 58019
 2765.00 1.069E-05 98129 96071 93826 91384 88569 85323 81478 79233 76698 73751 72058 70159 67970 65304 61693 58204
 2775.00 1.063E-05 98119 96049 93819 91326 88514 85268 81430 79191 76670 73735 72041 70151 67968 65315 61731 58260
 2785.00 1.059E-05 98111 96128 93862 91388 88584 85345 81520 79292 76771 73834 72153 70264 68074 65430 61841 58376
 2795.00 1.056E-05 98106 96117 93892 91420 88627 85407 81591 79366 76847 73911 72235 70341 68153 65502 61913 58447
 2805.00 1.049E-05 98093 96092 93851 91392 88608 85396 81582 79371 76864 73937 72269 70381 68208 65567 61992 58541
 2815.00 1.042E-05 98177 96161 93906 91440 88647 85432 81622 79405 76900 73983 72313 70432 68263 65624 62063 58628
 2825.00 1.036E-05 98166 96158 93967 91515 88736 85541 81757 79546 77056 74151 72481 70608 68446 65811 62259 58822
 2835.00 1.033E-05 98161 96128 93940 91500 88732 85547 81772 79574 77086 74182 72517 70649 68480 65847 62294 58867
 2845.00 1.024E-05 98145 96123 93945 91523 88779 85615 81865 79688 77217 74336 72686 70820 68672 66064 62520 59111
 2855.00 1.019E-05 98086 96104 93925 91501 88754 85584 81835 79657 77184 74318 72659 70805 68665 66055 62532 59127
 2865.00 1.013E-05 98095 96130 93968 91550 88825 85676 81945 79773 77305 74442 72794 70948 68806 66199 62675 59279
 2875.00 1.007E-05 98193 96246 94111 91718 89007 85869 82145 79980 77517 74647 72999 71152 68997 66395 62860 59464
 2885.00 1.001E-05 98182 96234 94076 91668 88951 85814 82108 79940 77493 74645 73007 71159 69031 66434 62927 59540
 2895.00 9.959E-06 98152 96194 94046 91636 88925 85802 82097 79938 77498 74656 73019 71182 69053 66473 62978 59604
 2905.00 9.896E-06 98090 96130 93977 91582 88864 85742 82043 79891 77456 74626 72999 71170 69048 66481 63005 59640
 2915.00 9.845E-06 98111 96160 94017 91620 88918 85800 82113 79970 77532 74708 73083 71254 69142 66582 63098 59756
 2925.00 9.695E-06 98164 96215 94069 91686 88984 85890 82228 80103 77700 74905 73306 71501 69417 66890 63466 60144
 2935.00 9.718E-06 98127 96182 94042 91665 88969 85872 82208 80078 77660 74861 73246 71434 69335 66794 63346 60023
 2945.00 9.649E-06 98114 96186 94062 91699 89025 85947 82309 80195 77790 75003 73407 71603 69510 66971 63530 60213
 2955.00 9.606E-06 98126 96190 94066 91693 89017 85946 82303 80179 77785 75005 73402 71601 69509 66979 63544 60233
 2965.00 9.564E-06 98118 96184 94061 91698 89032 85958 82330 80207 77823 75031 73432 71633 69552 67022 63582 60278
 2975.00 9.511E-06 98128 96204 94091 91736 89076 86006 82389 80275 77889 75113 73515 71717 69635 67112 63684 60383
 2985.00 9.443E-06 98136 96219 94101 91751 89092 86032 82421 80313 77941 75167 73578 71789 69724 67203 63793 60510
 2995.00 9.374E-06 98154 96245 94143 91796 89151 86111 82515 80425 78056 75304 73725 71944 69885 67378 63975 60700
 3005.00 9.325E-06 98156 96247 94145 91807 89169 86134 82542 80461 78102 75346 73769 71989 69941 67432 64043 60761
 3015.00 9.289E-06 98138 96232 94133 91797 89159 86123 82528 80450 78082 75336 73754 71988 69932 67435 64043 60771
 3025.00 9.213E-06 98187 96277 94182 91848 89222 86193 82622 80538 78194 75459 73885 72115 70075 67578 64203 60946
 3035.00 9.147E-06 98229 96359 94293 91997 89385 86389 82836 80759 78419 75686 74112 72352 70307 67815 64436 61179
 3045.00 9.124E-06 98181 96306 94235 91922 89314 86300 82738 80666 78321 75592 74025 72260 70221 67733 64358 61103
 3055.00 9.062E-06 98135 96248 94162 91845 89230 86228 82675 80611 78283 75568 74012 72258 70227 67767 64423 61190
 3065.00 8.998E-06 98155 96277 94199 91898 89298 86308 82774 80718 78406 75706 74150 72405 70382 67926 64581 61358
 3075.00 8.968E-06 98160 96276 94202 91893 89284 86296 82761 80709 78379 75680 74130 72380 70361 67908 64563 61340
 3085.00 8.879E-06 98164 96283 94211 91902 89312 86339 82813 80775 78477 75797 74254 72519 70515 68082 64771 61572
 3095.00 8.849E-06 98147 96271 94214 91920 89332 86371 82868 80823 78529 75850 74302 72573 70562 68121 64810 61600
 3105.00 8.816E-06 98196 96325 94260 91958 89372 86400 82883 80842 78539 75851 74308 72573 70565 68126 64814 61604
 3115.00 8.689E-06 98193 96329 94280 92013 89446 86512 83048 81045 78766 76131 74612 72897 70917 68523 65255 62067
 3125.00 8.708E-06 98197 96337 94281 91996 89424 86461 82981 80949 78663 75999 74460 72738 70740 68316 65021 61828
 3135.00 8.663E-06 98211 96341 94286 92000 89426 86471 82974 80953 78668 76001 74466 72746 70761 68337 65047 61861
 3145.00 8.613E-06 98154 96296 94241 91954 89388 86439 82968 80947 78660 76013 74480 72762 70788 68373 65099 61918
 3155.00 8.537E-06 98196 96345 94319 92058 89516 86588 83144 81141 78880 76245 74734 73035 71055 68654 65398 62223
 3165.00 8.490E-06 98174 96313 94276 92002 89458 86525 83074 81084 78822 76196 74676 72980 71025 68634 65383 62226
 3175.00 8.464E-06 98192 96349 94305 92049 89509 86578 83140 81132 78875 76241 74728 73027 71054 68667 65406 62252
 3185.00 8.416E-06 98182 96328 94308 92051 89508 86597 83163 81167 78909 76283 74774 73087 71126 68738 65494 62334
 3195.00 8.377E-06 98186 96335 94306 92050 89507 86594 83156 81163 78918 76292 74788 73093 71135 68748 65513 62373
 3210.00 8.296E-06 98156 96324 94298 92068 89537 86644 83233 81256 79014 76410 74916 73240 71287 68913 65694 62560
 3230.00 8.199E-06 98244 96402 94390 92145 89621 86730 83327 81351 79132 76534 75046 73375 71436 69082 65874 62752
 3250.00 8.108E-06 98249 96411 94413 92181 89677 86803 83424 81463 79243 76665 75185 73520 71584 69240 66046 62938
 3270.00 8.013E-06 98228 96406 94409 92188 89704 86846 83477 81530 79321 76763 75290 73643 71721 69387 66217 63122
 3290.00 7.916E-06 98295 96501 94530 92345 89881 87039 83691 81758 79560 77009 75531 73888 71968 69644 66473 63378
 3310.00 7.831E-06 98225 96424 94445 92262 89797 86962 83642 81714 79530 77002 75546 73911 72021 69710 66569 63491
 3330.00 7.729E-06 98266 96481 94501 92328 89869 87062 83762 81848 79687 77177 75728 74110 72222 69931 66813 63760
 3350.00 7.675E-06 98228 96443 94476 92287 89837 87036 83739 81824 79661 77160 75713 74085 72208 69915 66801 63739
 3370.00 7.584E-06 98260 96479 94515 92339 89900 87118 83821 81922 79773 77281 75844 74222 72363 70082 66983 63937
 3390.00 7.484E-06 98236 96459 94508 92357 89939 87173 83912 82028 79904 77432 76016 74412 72568 70310 67237 64217
 3410.00 7.395E-06 98296 96525 94577 92427 90020 87262 84016 82150 80027 77566 76146 74564 72725 70480 67424 64408
 3430.00 7.347E-06 98285 96516 94569 92419 90010 87246 84007 82129 80005 77542 76126 74534 72696 70451 67402 64394
 3450.00 7.278E-06 98296 96524 94586 92429 90025 87277 84034 82165 80049 77590 76189 74595 72754 70528 67477 64482
 3470.00 7.196E-06 98277 96512 94594 92454 90064 87326 84116 82254 80156 77710 76306 74736 72916 70692 67663 64675
 3490.00 7.122E-06 98315 96560 94636 92502 90115 87391 84190 82336 80244 77815 76411 74839 73027 70809 67790 64813
 3510.00 7.055E-06 98242 96499 94571 92459 90078 87371 84181 82339 80255 77846 76456 74883 73083 70872 67867 64904
 3530.00 6.968E-06 98235 96498 94590 92494 90126 87443 84271 82448 80382 77985 76607 75057 73263 71082 68097 65141
 3550.00 6.906E-06 98262 96525 94628 92528 90168 87475 84318 82493 80437 78048 76672 75123 73328 71156 68173 65233
 3570.00 6.828E-06 98330 96602 94713 92619 90261 87595 84446 82630 80580 78193 76816 75278 73506 71324 68366 65422
 3590.00 6.756E-06 98342 96610 94731 92644 90305 87641 84517 82712 80669 78301 76939 75400 73638 71477 68517 65601
 3610.00 6.700E-06 98269 96552 94657 92582 90254 87582 84463 82672 80627 78269 76910 75388 73627 71478 68537 65612
 3630.00 6.631E-06 98311 96592 94722 92641 90318 87664 84557 82763 80727 78374 77032 75509 73745 71603 68677 65767
 3650.00 6.548E-06 98335 96625 94762 92700 90394 87767 84698 82911 80910 78574 77230 75718 73977 71854 68937 66051
 3670.00 6.472E-06 98362 96663 94808 92769 90467 87855 84796 83035 81041 78708 77379 75881 74150 72033 69144 66255
 3690.00 6.384E-06 98340 96664 94831 92810 90555 87970 84947 83208 81234 78947 77632 76143 74420 72337 69455 66588
 3710.00 6.314E-06 98385 96706 94884 92873 90608 88058 85049 83307 81343 79078 77764 76291 74580 72506 69639 66772
 3730.00 6.284E-06 98345 96674 94860 92839 90579 88001 84978 83227 81254 78962 77642 76178 74459 72374 69510 66645
 3750.00 6.188E-06 98416 96784 94990 93003 90772 88251 85278 83549 81610 79347 78038 76584 74887 72818 69974 67114
 3770.00 6.161E-06 98377 96705 94887 92891 90651 88086 85100 83363 81415 79159 77845 76384 74696 72618 69778 66937
 3790.00 6.096E-06 98376 96719 94898 92913 90682 88140 85171 83465 81512 79265 77969 76509 74836 72769 69948 67110
 3810.00 6.047E-06 98379 96726 94907 92922 90690 88143 85183 83463 81528 79279 77989 76534 74847 72796 69969 67157
 3830.00 6.000E-06 98333 96667 94867 92867 90650 88117 85150 83433 81500 79250 77967 76517 74833 72783 69983 67167
 3850.00 5.946E-06 98318 96670 94854 92869 90649 88126 85167 83451 81534 79297 78002 76572 74891 72856 70064 67255
 3870.00 5.859E-06 98379 96723 94931 92951 90749 88240 85305 83615 81703 79502 78222 76788 75149 73118 70353 67554
 3890.00 5.822E-06 98368 96737 94950 92975 90776 88269 85332 83648 81742 79526 78255 76829 75180 73154 70388 67588
 3910.00 5.776E-06 98442 96797 94997 93023 90824 88331 85388 83708 81804 79588 78307 76887 75225 73217 70447 67659
 3930.00 5.722E-06 98375 96749 94967 93009 90807 88326 85407 83729 81825 79640 78364 76949 75306 73296 70535 67774
 3950.00 5.643E-06 98423 96810 95038 93089 90927 88446 85575 83909 82031 79851 78593 77193 75563 73578 70849 68084
 3970.00 5.604E-06 98430 96806 95039 93094 90917 88455 85564 83904 82031 79854 78605 77195 75571 73590 70860 68094
 3990.00 5.518E-06 98441 96829 95089 93168 91029 88601 85756 84107 82258 80120 78887 77492 75897 73922 71221 68467
 4010.00 5.492E-06 98452 96850 95102 93172 91023 88565 85725 84068 82210 80062 78824 77440 75819 73853 71158 68409
 4030.00 5.457E-06 98442 96830 95089 93165 91002 88565 85706 84076 82206 80062 78816 77423 75811 73850 71156 68408
 4050.00 5.384E-06 98458 96898 95189 93295 91178 88763 85940 84305 82467 80331 79105 77712 76114 74164 71471 68741
 4070.00 5.350E-06 98449 96860 95122 93215 91084 88673 85850 84224 82393 80262 79028 77664 76075 74112 71439 68710
 4090.00 5.306E-06 98455 96871 95138 93234 91104 88692 85884 84244 82416 80286 79061 77704 76103 74161 71504 68790
 4110.00 5.259E-06 98403 96824 95094 93193 91082 88686 85891 84275 82449 80338 79122 77752 76174 74235 71573 68872
 4130.00 5.218E-06 98467 96876 95151 93254 91127 88731 85933 84304 82484 80376 79149 77788 76217 74281 71637 68934
 4150.00 5.164E-06 98412 96844 95139 93242 91150 88768 85999 84392 82591 80480 79280 77924 76356 74458 71805 69113
 4170.00 5.119E-06 98437 96874 95155 93280 91190 88806 86032 84431 82633 80543 79332 77984 76421 74526 71889 69193
 4190.00 5.054E-06 98476 96913 95212 93332 91254 88900 86150 84567 82766 80708 79521 78176 76632 74733 72121 69450
 4210.00 4.994E-06 98478 96936 95254 93412 91350 89027 86304 84742 82980 80937 79756 78434 76892 75030 72427 69764
 4230.00 4.992E-06 98438 96875 95172 93309 91226 88882 86138 84535 82752 80689 79487 78165 76623 74720 72115 69451
 4250.00 4.932E-06 98500 96959 95276 93410 91363 89011 86294 84712 82948 80900 79724 78386 76865 74980 72384 69728
 4270.00 4.902E-06 98450 96899 95226 93370 91310 88984 86251 84680 82905 80865 79682 78356 76826 74949 72358 69706
 4290.00 4.653E-06 98539 97013 95358 93553 91532 89254 86611 85085 83387 81388 80249 78938 77434 75586 72964 70191
 4310.00 4.436E-06 98535 96979 95266 93417 91366 89067 86407 84896 83183 81222 80095 78832 77367 75541 72971 70153
 4330.00 4.483E-06 98528 96944 95226 93375 91300 88958 86282 84742 83002 81017 79880 78608 77136 75329 72786 70087
 4350.00 4.257E-06 98591 97064 95419 93634 91661 89429 86845 85365 83721 81818 80714 79469 78036 76251 73667 70848
 4370.00 4.155E-06 98556 97016 95355 93550 91552 89338 86787 85343 83706 81853 80794 79591 78219 76510 74031 71336
 4390.00 4.115E-06 98518 96938 95237 93414 91397 89137 86586 85128 83499 81652 80608 79441 78080 76403 73973 71252
 4410.00 3.917E-06 98621 97141 95583 93873 92009 89941 87567 86214 84708 82946 81950 80827 79500 77815 75313 72377
 4430.00 3.897E-06 98563 97023 95381 93636 91712 89582 87170 85784 84270 82551 81576 80446 79163 77521 75109 72286
 4450.00 3.868E-06 98578 97027 95398 93640 91727 89581 87177 85807 84281 82549 81541 80429 79111 77482 75052 72208
 4470.00 3.703E-06 98650 97218 95706 94059 92250 90278 88010 86713 85282 83635 82690 81583 80313 78666 76127 73157
 4490.00 3.768E-06 98567 97054 95435 93684 91799 89703 87314 85961 84448 82749 81768 80653 79352 77734 75292 72426
 4510.00 3.678E-06 98613 97118 95541 93828 91979 89940 87629 86324 84883 83225 82273 81185 79935 78331 75911 73056
 4530.00 3.578E-06 98686 97289 95808 94215 92454 90553 88345 87116 85718 84125 83203 82141 80883 79262 76775 73784
 4550.00 3.620E-06 98619 97182 95635 93978 92155 90138 87845 86547 85111 83425 82459 81381 80083 78453 75967 73066
 4570.00 3.633E-06 98596 97110 95541 93834 91990 89926 87586 86265 84778 83072 82081 80980 79686 78007 75502 72557
 4590.00 3.497E-06 98713 97341 95854 94281 92565 90678 88476 87246 85845 84215 83271 82213 80898 79239 76694 73663
 4610.00 3.565E-06 98654 97223 95708 94053 92230 90238 87938 86620 85161 83478 82525 81403 80112 78457 75961 73043
 4630.00 3.529E-06 98640 97223 95664 94021 92207 90196 87900 86597 85123 83451 82460 81354 80051 78379 75886 72967
 4650.00 3.542E-06 98645 97205 95680 94015 92180 90175 87860 86533 85065 83371 82383 81282 79955 78289 75776 72840
 4670.00 3.555E-06 98678 97243 95724 94065 92264 90239 87904 86582 85091 83347 82363 81210 79859 78143 75584 72574
 4690.00 3.526E-06 98639 97192 95632 93959 92116 90074 87691 86358 84855 83125 82104 80970 79637 77935 75411 72462
 4710.00 3.481E-06 98650 97213 95691 94053 92244 90233 87963 86642 85177 83482 82476 81356 80034 78340 75754 72738
 4730.00 3.542E-06 98645 97205 95652 93986 92151 90090 87747 86392 84896 83145 82129 80971 79616 77894 75296 72247
 4750.00 3.475E-06 98647 97237 95683 94043 92201 90187 87856 86532 85036 83309 82302 81151 79827 78101 75540 72576
 4770.00 3.459E-06 98670 97225 95692 94045 92223 90199 87858 86528 85053 83319 82336 81208 79879 78173 75629 72651
 4790.00 3.455E-06 98698 97279 95774 94153 92359 90362 88075 86773 85297 83589 82605 81476 80145 78437 75861 72851
 4810.00 3.382E-06 98699 97280 95801 94175 92371 90390 88114 86813 85364 83649 82673 81549 80219 78533 75961 72945
 4830.00 3.449E-06 98666 97246 95709 94056 92230 90200 87881 86518 85039 83271 82285 81125 79791 78081 75529 72543
 4850.00 3.411E-06 98681 97274 95749 94107 92290 90267 87951 86631 85136 83436 82439 81325 79977 78305 75784 72823
 4870.00 3.353E-06 98688 97286 95795 94184 92425 90426 88160 86848 85386 83686 82732 81599 80286 78586 76051 73069
 4890.00 3.337E-06 98681 97273 95775 94126 92328 90321 88043 86725 85256 83548 82559 81450 80132 78454 75936 72970
 4910.00 3.330E-06 98709 97297 95796 94174 92402 90420 88108 86817 85345 83634 82643 81532 80210 78529 75976 73003
 4930.00 3.295E-06 98695 97299 95812 94173 92413 90440 88164 86859 85402 83733 82762 81639 80334 78665 76176 73232
 4950.00 3.262E-06 98682 97302 95800 94206 92428 90466 88197 86910 85469 83814 82833 81729 80441 78786 76272 73299
 4970.00 3.266E-06 98714 97336 95836 94244 92498 90539 88273 86987 85517 83833 82884 81782 80465 78812 76332 73423
 4990.00 3.239E-06 98734 97376 95894 94319 92590 90645 88391 87126 85675 84007 83050 81939 80642 78975 76474 73572
 5010.00 3.232E-06 98700 97308 95823 94214 92451 90470 88181 86881 85458 83756 82797 81683 80415 78744 76269 73391
 5030.00 3.218E-06 98695 97328 95836 94220 92449 90460 88191 86886 85426 83717 82753 81635 80329 78682 76196 73306
 5050.00 3.159E-06 98702 97341 95885 94302 92593 90662 88414 87148 85723 84077 83128 82020 80753 79107 76638 73758
 5070.00 3.164E-06 98736 97377 95923 94343 92636 90676 88464 87200 85746 84102 83123 82048 80752 79109 76612 73736
 5090.00 3.157E-06 98701 97339 95850 94267 92525 90561 88312 87013 85556 83909 82927 81818 80519 78872 76402 73519
 5110.00 3.107E-06 98745 97393 95945 94368 92662 90731 88542 87287 85871 84261 83296 82234 80946 79337 76891 73994
 5130.00 3.130E-06 98754 97380 95942 94377 92620 90703 88466 87188 85751 84089 83131 82045 80735 79105 76613 73738
 5150.00 3.085E-06 98736 97374 95948 94360 92674 90729 88558 87293 85867 84214 83274 82204 80908 79287 76856 73971
 5170.00 3.108E-06 98745 97362 95914 94305 92568 90605 88353 87098 85650 83977 83012 81918 80631 78990 76544 73681
 5190.00 3.060E-06 98726 97386 95948 94412 92680 90784 88562 87320 85882 84248 83268 82190 80915 79281 76830 73987
 5210.00 3.058E-06 98757 97417 95978 94408 92708 90811 88587 87345 85906 84271 83290 82211 80935 79300 76848 74003
 5230.00 3.021E-06 98742 97385 95962 94406 92718 90798 88613 87355 85932 84310 83350 82291 81000 79378 76961 74148
 5250.00 3.031E-06 98746 97394 95942 94358 92643 90696 88486 87199 85780 84131 83174 82085 80831 79215 76773 73936
 5270.00 3.036E-06 98748 97398 95949 94401 92655 90744 88505 87253 85804 84157 83202 82115 80830 79216 76812 74045
 5290.00 2.973E-06 98755 97444 96031 94517 92802 90918 88766 87521 86108 84494 83552 82476 81231 79617 77228 74437
 5310.00 2.968E-06 98787 97439 96024 94508 92790 90903 88713 87466 86051 84434 83491 82412 81132 79515 77055 74225
 5330.00 2.964E-06 98752 97436 96019 94501 92780 90891 88698 87449 86032 84413 83435 82389 81107 79487 77092 74325
 5350.00 2.951E-06 98780 97458 96035 94510 92816 90918 88750 87496 86073 84446 83497 82413 81159 79532 77093 74280
 5370.00 2.942E-06 98776 97451 96057 94528 92828 90959 88783 87525 86132 84500 83549 82495 81237 79606 77226 74473
 5390.00 2.931E-06 98772 97475 96042 94507 92835 90925 88741 87479 86080 84442 83487 82429 81167 79563 77141 74377
 5410.00 2.915E-06 98765 97461 96055 94545 92864 90978 88816 87547 86141 84528 83568 82504 81235 79657 77290 74511
 5430.00 2.870E-06 98815 97526 96132 94634 92997 91150 88990 87770 86376 84774 83833 82753 81498 79895 77526 74739
 5450.00 2.887E-06 98788 97471 96086 94562 92899 91029 88847 87600 86214 84586 83651 82577 81330 79737 77347 74645
 5470.00 2.867E-06 98779 97489 96093 94559 92885 91036 88873 87618 86223 84583 83641 82595 81339 79735 77363 74573
 5490.00 2.848E-06 98771 97507 96103 94593 92942 91081 88940 87711 86306 84691 83743 82690 81426 79846 77458 74754
 5510.00 2.837E-06 98802 97533 96123 94607 92950 91082 88932 87698 86324 84702 83750 82693 81459 79838 77476 74692
 5530.00 2.862E-06 98777 97484 96122 94619 92942 91090 88924 87701 86303 84661 83718 82669 81412 79839 77498 74843
 5550.00 2.798E-06 98821 97534 96176 94675 93031 91172 89064 87813 86455 84846 83917 82845 81594 80021 77627 74875
 5570.00 2.821E-06 98795 97519 96136 94647 92981 91102 88976 87735 86352 84722 83800 82737 81496 79901 77561 74867
 5590.00 2.787E-06 98852 97560 96197 94726 93111 91245 89128 87908 86545 84930 83997 82957 81701 80158 77826 75135
 5610.00 2.779E-06 98777 97553 96186 94710 93091 91256 89133 87909 86542 84923 83987 82944 81720 80173 77870 75207
 5630.00 2.751E-06 98837 97601 96220 94766 93130 91312 89168 87968 86587 84987 84079 83024 81788 80225 77899 75209
 5650.00 2.758E-06 98803 97534 96193 94706 93075 91262 89123 87890 86548 84953 84010 82959 81726 80203 77883 75236
 5670.00 2.744E-06 98834 97558 96210 94752 93112 91290 89176 87974 86589 84985 84074 83017 81815 80248 77952 75292
 5690.00 2.710E-06 98819 97601 96273 94797 93210 91402 89299 88081 86716 85166 84244 83210 81956 80406 78118 75424
 5710.00 2.720E-06 98824 97574 96213 94779 93162 91324 89228 88015 86654 85074 84154 83125 81912 80368 78088 75478
 5730.00 2.700E-06 98852 97593 96259 94815 93185 91407 89296 88074 86741 85148 84222 83185 82000 80444 78185 75593
 5750.00 2.689E-06 98810 97583 96244 94794 93195 91372 89290 88062 86724 85125 84232 83191 81964 80439 78170 75567
 5770.00 2.667E-06 98838 97600 96288 94826 93251 91451 89351 88151 86802 85264 84327 83315 82115 80577 78328 75741
 5790.00 2.669E-06 98801 97565 96253 94792 93218 91420 89322 88123 86774 85200 84301 83290 82053 80555 78306 75759
 5810.00 2.640E-06 98826 97614 96288 94848 93258 91477 89394 88220 86856 85303 84432 83409 82197 80682 78447 75871
 5830.00 2.630E-06 98783 97567 96274 94829 93270 91483 89392 88213 86882 85323 84411 83384 82205 80684 78479 75894
 5850.00 2.620E-06 98817 97595 96298 94847 93282 91489 89427 88244 86908 85344 84466 83435 82252 80725 78511 75954
 5870.00 2.594E-06 98843 97610 96299 94911 93331 91557 89514 88358 87008 85466 84580 83577 82382 80879 78643 76099
 5890.00 2.582E-06 98799 97599 96321 94926 93338 91596 89582 88381 87064 85554 84663 83656 82455 80984 78776 76220
 5910.00 2.577E-06 98797 97594 96314 94878 93287 91541 89484 88320 87000 85448 84556 83547 82344 80869 78657 76135
 5930.00 2.562E-06 98829 97619 96331 94926 93365 91608 89539 88368 87041 85519 84621 83607 82436 80952 78728 76230
 5950.00 2.544E-06 98821 97642 96344 94929 93396 91627 89623 88443 87107 85613 84709 83726 82508 81053 78852 76336
 5970.00 2.540E-06 98780 97559 96260 94882 93307 91535 89528 88346 87008 85512 84606 83622 82441 80945 78780 76299
 5990.00 2.524E-06 98811 97623 96315 94929 93384 91601 89580 88431 87124 85578 84707 83716 82528 81062 78883 76426
 6010.00 2.510E-06 98845 97649 96375 94980 93426 91673 89641 88486 87171 85657 84781 83785 82629 81155 79004 76534
 6030.00 2.496E-06 98838 97636 96354 94952 93389 91667 89623 88462 87179 85657 84776 83774 82612 81170 79006 76563
 6050.00 2.475E-06 98828 97616 96364 94949 93414 91677 89657 88525 87232 85697 84848 83838 82667 81212 79071 76606
 6070.00 2.462E-06 98863 97685 96426 95004 93461 91755 89724 88587 87287 85784 84931 83916 82778 81316 79163 76686
 6090.00 2.450E-06 98816 97633 96367 94980 93429 91714 89714 88571 87306 85796 84939 83959 82816 81347 79224 76776
 6110.00 2.431E-06 98807 97655 96380 95023 93501 91773 89798 88647 87371 85891 85027 84039 82888 81448 79309 76882
 6130.00 2.424E-06 98804 97607 96328 94967 93441 91708 89728 88573 87294 85809 84942 83993 82838 81394 79249 76815
 6150.00 2.412E-06 98839 97637 96393 94983 93491 91750 89760 88640 87355 85862 84992 84038 82877 81426 79312 76907
 6170.00 2.400E-06 98833 97667 96417 95042 93500 91792 89833 88667 87417 85917 85042 84083 82958 81500 79417 77000
 6190.00 2.389E-06 98828 97656 96358 95019 93470 91754 89787 88656 87359 85894 85015 84052 82922 81499 79406 77020
 6210.00 2.377E-06 98864 97686 96424 95036 93521 91796 89819 88683 87421 85949 85065 84098 82962 81531 79470 77072
 6230.00 2.358E-06 98855 97710 96438 95081 93596 91900 89949 88804 87532 86047 85199 84266 83121 81722 79644 77269
 6250.00 2.342E-06 98847 97694 96413 95047 93553 91887 89923 88813 87532 86080 85226 84244 83134 81725 79633 77242
 6270.00 2.328E-06 98797 97680 96435 95060 93557 91881 89905 88789 87543 86082 85223 84278 83162 81744 79682 77320
 6290.00 2.320E-06 98879 97716 96466 95086 93578 91897 89957 88836 87543 86078 85216 84267 83147 81767 79698 77284
 6310.00 2.305E-06 98829 97701 96443 95098 93579 91931 89978 88850 87592 86117 85293 84338 83210 81822 79740 77397
 6330.00 2.299E-06 98869 97695 96433 95085 93606 91910 89952 88821 87560 86081 85254 84298 83167 81775 79730 77381
 6350.00 2.282E-06 98817 97677 96407 95092 93558 91893 89965 88826 87599 86109 85276 84312 83216 81814 79755 77432
 6370.00 2.274E-06 98857 97713 96482 95119 93624 91953 90018 88874 87643 86192 85356 84389 83289 81882 79859 77573
 6390.00 2.257E-06 98848 97696 96500 95126 93664 91981 90031 88923 87683 86221 85379 84448 83341 81923 79885 77581
 6420.00 2.240E-06 98795 97634 96429 95089 93571 91920 90000 88884 87634 86205 85357 84420 83304 81920 79911 77589
 6460.00 2.213E-06 98870 97741 96521 95165 93719 92047 90149 89019 87799 86353 85540 84591 83461 82106 80072 77768
 6500.00 2.189E-06 98858 97716 96528 95203 93696 92051 90178 89082 87848 86386 85564 84651 83554 82184 80174 77889
 6540.00 2.165E-06 98845 97737 96490 95196 93718 92055 90162 89099 87852 86420 85589 84665 83603 82217 80231 77921
 6580.00 2.142E-06 98880 97759 96545 95238 93744 92110 90243 89122 87908 86508 85668 84734 83660 82306 80345 78058
 6620.00 2.117E-06 98866 97780 96552 95229 93812 92159 90269 89183 88002 86585 85782 84837 83751 82428 80444 78177
 6660.00 2.094E-06 98902 97803 96609 95272 93840 92216 90353 89255 88061 86628 85817 84909 83859 82474 80516 78271
 6700.00 2.071E-06 98889 97779 96620 95316 93868 92274 90391 89329 88122 86721 85901 84983 83921 82569 80637 78368
 6740.00 2.047E-06 98876 97802 96580 95310 93894 92281 90425 89350 88178 86761 85979 85051 83977 82658 80703 78456
 6780.00 2.024E-06 98962 97826 96690 95405 93972 92342 90514 89427 88241 86858 86067 85178 84091 82757 80830 78607
 6820.00 2.002E-06 98901 97802 96603 95355 93956 92358 90509 89461 88262 86863 86064 85165 84116 82817 80869 78621
 6860.00 1.980E-06 98838 97778 96616 95354 93939 92374 90556 89495 88283 86919 86162 85253 84192 82879 80960 78737
 6900.00 1.958E-06 98876 97804 96629 95352 93973 92390 90603 89530 88355 86977 86210 85342 84270 82993 81052 78805
 6940.00 1.937E-06 98864 97780 96644 95405 94011 92411 90604 89572 88384 87042 86267 85390 84357 83015 81105 78937
 6980.00 1.916E-06 98904 97860 96712 95459 94050 92484 90658 89666 88466 87109 86326 85438 84447 83142 81211 79019
 7020.00 1.893E-06 98943 97887 96725 95457 94083 92552 90755 89752 88590 87216 86476 85578 84575 83254 81352 79134
 7060.00 1.874E-06 98933 97866 96745 95518 94130 92583 90822 89755 88634 87247 86499 85646 84578 83298 81377 79189
 7100.00 1.854E-06 98921 97896 96764 95523 94121 92611 90831 89806 88673 87325 86516 85653 84628 83387 81446 79288
 7140.00 1.834E-06 98855 97819 96674 95474 94111 92585 90785 89804 88659 87296 86532 85714 84678 83370 81516 79335
 7180.00 1.814E-06 99008 97960 96803 95590 94212 92723 90959 89912 88809 87486 86714 85832 84840 83517 81643 79493
 7220.00 1.795E-06 98886 97883 96769 95543 94206 92646 90919 89916 88802 87465 86685 85850 84847 83565 81671 79499
 7260.00 1.776E-06 98986 97917 96847 95608 94257 92736 90991 90034 88908 87556 86824 85980 84966 83671 81813 79617
 7300.00 1.757E-06 98976 97894 96813 95618 94252 92772 91007 90040 88902 87592 86853 85999 84974 83722 81844 79681
 7340.00 1.738E-06 98907 97871 96778 95570 94246 92750 91024 90046 88953 87629 86881 86018 85040 83774 81933 79747
 7380.00 1.721E-06 98896 97908 96804 95584 94306 92795 91052 90064 88960 87682 86926 86113 85125 83847 81987 79837
 7420.00 1.701E-06 98942 97942 96825 95650 94356 92887 91182 90182 89065 87772 87066 86185 85244 83951 82128 79953
 7460.00 1.683E-06 98990 97980 96851 95722 94415 92929 91206 90255 89127 87879 87106 86275 85324 84076 82234 80036
 7500.00 1.667E-06 98920 97900 96821 95621 94361 92861 91182 90222 89142 87822 87103 86263 85303 84043 82184 80024
 7540.00 1.648E-06 99029 97998 96966 95752 94478 93022 91323 90352 89260 87985 87257 86468 85437 84223 82403 80218
 7580.00 1.634E-06 98898 97919 96879 95655 94370 92962 91248 90269 89229 87944 87209 86414 85435 84149 82313 80171
 7620.00 1.617E-06 98949 97959 96908 95733 94434 93012 91342 90353 89301 88002 87322 86456 85467 84292 82437 80272
 7660.00 1.601E-06 98938 98001 96939 95753 94441 93004 91380 90381 89319 88070 87320 86508 85572 84322 82511 80325
 7700.00 1.584E-06 98927 97917 96907 95770 94444 93056 91414 90467 89394 88131 87437 86616 85606 84407 82576 80429
 7740.00 1.569E-06 98917 97960 96941 95794 94519 93053 91396 90504 89420 88145 87444 86616 85660 84449 82600 80497
 7780.00 1.553E-06 99034 98068 96974 95879 94591 93175 91500 90599 89504 88281 87572 86735 85769 84546 82743 80618
 7820.00 1.538E-06 98960 97984 96944 95839 94603 93173 91547 90572 89532 88296 87581 86736 85826 84590 82770 80624
 7860.00 1.523E-06 99015 98030 96980 95863 94616 93171 91530 90611 89560 88313 87590 86802 85883 84636 82863 80696
 7900.00 1.508E-06 99005 98011 96950 95822 94629 93170 91578 90650 89589 88395 87666 86870 85875 84682 82891 80769
 7940.00 1.493E-06 98995 98058 96986 95847 94642 93235 91628 90690 89685 88413 87743 86939 86001 84796 82987 80844
 7980.00 1.479E-06 98986 98039 96957 95876 94659 93239 91616 90737 89655 88438 87762 86951 86004 84787 83029 80865
 8020.00 1.463E-06 99043 98086 97061 95967 94737 93370 91729 90841 89747 88585 87902 87081 86124 84962 83185 80998
 8060.00 1.449E-06 99034 98137 97101 95997 94755 93375 91787 90890 89855 88613 87923 87164 86197 85024 83230 81090
 8100.00 1.436E-06 98955 97981 97006 95891 94638 93315 91713 90808 89763 88579 87883 87117 86212 85028 83217 81058
 8140.00 1.422E-06 98945 98031 97046 95921 94726 93390 91772 90858 89873 88678 87975 87201 86287 85091 83333 81224
 8180.00 1.409E-06 99077 98084 97090 96026 94819 93400 91838 90916 89922 88715 88077 87225 86302 85167 83392 81263
 8220.00 1.396E-06 98997 98066 97063 95989 94771 93410 91834 90974 89971 88754 88037 87321 86390 85172 83381 81304
 8260.00 1.382E-06 98987 98119 97106 96020 94790 93488 91896 91027 90014 88857 88133 87337 86469 85311 83502 81404
 8300.00 1.369E-06 99123 98174 97151 96129 94887 93572 91965 91088 90066 88897 88240 87436 86560 85318 83565 81446
 8340.00 1.356E-06 99041 98156 97198 96091 94912 93584 92035 91077 90118 88938 88274 87463 86578 85398 83628 81490
 8380.00 1.343E-06 99106 98139 97171 96128 94937 93596 92033 91139 90171 88980 88310 87565 86597 85480 83693 81608
 8420.00 1.331E-06 99023 98122 97145 96093 94891 93539 92036 91134 90158 89031 88355 87528 86627 85500 83772 81593
 8460.00 1.319E-06 99014 98105 97119 96058 94845 93556 92039 91130 90144 89007 88324 87566 86657 85519 83776 81653
 8500.00 1.307E-06 99005 98087 97093 96021 94874 93573 92043 91201 90207 89059 88370 87605 86687 85539 83780 81714
 8540.00 1.295E-06 99151 98224 97220 96216 94981 93668 92201 91274 90347 89189 88494 87722 86795 85637 83938 81853
 8580.00 1.284E-06 99065 98209 97196 96184 95016 93692 92134 91277 90343 89174 88474 87695 86838 85670 83956 81854
 8620.00 1.272E-06 99057 98192 97248 96148 95047 93711 92217 91352 90330 89230 88522 87814 86871 85770 84041 81918
 8660.00 1.261E-06 98969 98097 97145 96114 94925 93656 92149 91277 90325 89215 88580 87787 86915 85726 84060 81919
 8700.00 1.249E-06 99119 98239 97278 96237 95116 93835 92314 91433 90472 89351 88631 87910 87030 85909 84147 82066
 8740.00 1.238E-06 99031 98142 97173 96204 95073 93780 92246 91438 90468 89338 88691 87964 87076 85945 84168 82068
 8780.00 1.227E-06 99104 98207 97311 96251 95110 93806 92339 91443 90546 89405 88753 88020 87123 85982 84271 82152
 8820.00 1.216E-06 99178 98273 97286 96299 95148 93832 92352 91530 90543 89474 88816 88076 87171 86020 84293 82220
 8860.00 1.205E-06 99087 98174 97261 96266 95104 93859 92365 91535 90622 89461 88797 88050 87220 86058 84315 82266
 8900.00 1.195E-06 99079 98243 97322 96234 95146 93891 92385 91548 90628 89540 88870 88117 87280 86109 84351 82301
 8940.00 1.185E-06 99072 98228 97300 96287 95105 93840 92405 91561 90633 89536 88861 88101 87257 86160 84388 82321
 8980.00 1.174E-06 99063 98211 97274 96252 95145 93867 92419 91567 90630 89523 88927 88160 87308 86201 84463 82377
 9020.00 1.164E-06 99141 98282 97337 96306 95189 93986 92526 91667 90722 89605 89003 88230 87371 86254 84545 82457
 9060.00 1.154E-06 99220 98354 97400 96360 95234 94021 92548 91768 90815 89688 89081 88302 87435 86326 84610 82522
 9100.00 1.143E-06 99125 98250 97288 96325 95188 93963 92563 91689 90814 89676 89064 88364 87480 86369 84654 82572
 9140.00 1.134E-06 99206 98325 97443 96384 95326 94092 92593 91799 90829 89771 89153 88360 87540 86429 84718 82628
 9180.00 1.125E-06 99022 98222 97244 96267 95200 93956 92533 91733 90756 89689 89067 88347 87493 86382 84676 82596
 9220.00 1.116E-06 99104 98297 97312 96326 95251 93996 92563 91756 90860 89785 89140 88414 87554 86443 84740 82661
 9260.00 1.106E-06 99186 98282 97378 96383 95298 94123 92676 91863 90958 89855 89222 88508 87649 86537 84837 82758
 9300.00 1.097E-06 99088 98268 97356 96354 95260 94075 92707 91887 90939 89863 89234 88514 87657 86554 84859 82780
 9340.00 1.088E-06 99081 98254 97335 96415 95313 94118 92647 91875 90956 89881 89256 88539 87684 86581 84890 82813
 9380.00 1.079E-06 99073 98239 97312 96386 95273 94069 92678 91881 90973 89907 89277 88563 87720 86617 84921 82845
 9420.00 1.070E-06 99159 98318 97383 96449 95327 94112 92748 91944 91028 89963 89346 88626 87776 86682 84991 82907
 9460.00 1.061E-06 99152 98303 97361 96418 95382 94156 92762 91960 91056 89991 89369 88662 87813 86720 85033 82959
 9500.00 1.052E-06 99144 98384 97433 96483 95437 94221 92833 92034 91122 90067 89449 88736 87890 86797 85105 83032
 9540.00 1.043E-06 99233 98370 97507 96548 95475 94276 92896 92090 91189 90134 89521 88811 87967 86874 85187 83116
 9580.00 1.035E-06 99130 98357 97488 96493 95430 94242 92860 92068 91169 90116 89507 88802 87961 86870 85188 83121
 9620.00 1.027E-06 99124 98345 97468 96495 95433 94245 92872 92074 91178 90127 89513 88812 87975 86884 85209 83135
 9660.00 1.018E-06 99116 98330 97436 96483 95442 94263 92898 92112 91218 90177 89568 88870 88026 86945 85265 83193
 9700.00 1.010E-06 99208 98376 97495 96545 95505 94327 92960 92168 91277 90228 89624 88921 88089 87010 85327 83257
 9740.00 1.001E-06 99151 98352 97483 96543 95505 94336 92977 92198 91309 90280 89670 88971 88142 87063 85395 83317
 9780.00 9.937E-07 99165 98360 97494 96548 95512 94344 92996 92211 91325 90289 89685 88991 88165 87089 85408 83345
 9820.00 9.861E-07 99199 98388 97526 96583 95548 94382 93023 92242 91360 90326 89717 89027 88196 87121 85448 83379
 9860.00 9.783E-07 99100 98313 97455 96525 95492 94337 92988 92211 91342 90310 89707 89022 88194 87121 85454 83390
 9900.00 9.706E-07 99217 98413 97558 96621 95590 94426 93076 92304 91428 90398 89790 89100 88275 87204 85535 83474
 9940.00 9.629E-07 99180 98390 97528 96604 95576 94423 93094 92315 91443 90414 89822 89127 88306 87236 85575 83508
 9980.00 9.554E-07 99110 98325 97488 96567 95552 94411 93081 92317 91449 90433 89837 89146 88330 87262 85598 83536
10020.00 9.479E-07 99124 98344 97500 96582 95569 94430 93111 92352 91486 90463 89872 89187 88364 87309 85642 83585
20000.00 2.423E-07 99587 99133 98638 98102 97524 96863 96038 95543 94965 94263 93851 93314 92695 91787 90260 88238
40000.00 6.082E-08 99737 99441 99112 98734 98306 97797 97139 96744 96251 95626 95232 94739 94114 93226 91713 89674
60000.00 2.695E-08 99740 99481 99184 98850 98442 97922 97328 96920 96438 95807 95399 94917 94286 93395 91837 89833
80000.00 1.509E-08 99735 99470 99205 98873 98476 97946 97349 96952 96421 95825 95427 94897 94301 93373 91849 89795
