EFF   6250.  GRAVITY 4.50000  SDSC GRID  [+0.3]   VTURB 2.0 KM/S    L/H 1.25                            
  wl(nm)    Inu(ergs/cm**2/s/hz/ster) for 17 mu in 1221 frequency intervals
            1.000   .900  .800  .700  .600  .500  .400  .300  .250  .200  .150  .125  .100  .075  .050  .025  .010
    9.09 0.000E+00     0     0     0     0     0     0     0     0     0     0     0     0     0     0     0     0
    9.35 0.000E+00     0     0     0     0     0     0     0     0     0     0     0     0     0     0     0     0
    9.61 0.000E+00     0     0     0     0     0     0     0     0     0     0     0     0     0     0     0     0
    9.77 0.000E+00     0     0     0     0     0     0     0     0     0     0     0     0     0     0     0     0
    9.96 0.000E+00     0     0     0     0     0     0     0     0     0     0     0     0     0     0     0     0
   10.20 0.000E+00     0     0     0     0     0     0     0     0     0     0     0     0     0     0     0     0
   10.38 0.000E+00     0     0     0     0     0     0     0     0     0     0     0     0     0     0     0     0
   10.56 0.000E+00     0     0     0     0     0     0     0     0     0     0     0     0     0     0     0     0
   10.77 0.000E+00     0     0     0     0     0     0     0     0     0     0     0     0     0     0     0     0
   11.04 0.000E+00     0     0     0     0     0     0     0     0     0     0     0     0     0     0     0     0
   11.40 0.000E+00     0     0     0     0     0     0     0     0     0     0     0     0     0     0     0     0
   11.78 0.000E+00     0     0     0     0     0     0     0     0     0     0     0     0     0     0     0     0
   12.13 0.000E+00     0     0     0     0     0     0     0     0     0     0     0     0     0     0     0     0
   12.48 0.000E+00     0     0     0     0     0     0     0     0     0     0     0     0     0     0     0     0
   12.71 0.000E+00     0     0     0     0     0     0     0     0     0     0     0     0     0     0     0     0
   12.84 0.000E+00     0     0     0     0     0     0     0     0     0     0     0     0     0     0     0     0
   13.05 0.000E+00     0     0     0     0     0     0     0     0     0     0     0     0     0     0     0     0
   13.24 0.000E+00     0     0     0     0     0     0     0     0     0     0     0     0     0     0     0     0
   13.39 0.000E+00     0     0     0     0     0     0     0     0     0     0     0     0     0     0     0     0
   13.66 0.000E+00     0     0     0     0     0     0     0     0     0     0     0     0     0     0     0     0
   13.98 0.000E+00     0     0     0     0     0     0     0     0     0     0     0     0     0     0     0     0
   14.33 0.000E+00     0     0     0     0     0     0     0     0     0     0     0     0     0     0     0     0
   14.72 0.000E+00     0     0     0     0     0     0     0     0     0     0     0     0     0     0     0     0
   15.10 0.000E+00     0     0     0     0     0     0     0     0     0     0     0     0     0     0     0     0
   15.52 0.000E+00     0     0     0     0     0     0     0     0     0     0     0     0     0     0     0     0
   15.88 0.000E+00     0     0     0     0     0     0     0     0     0     0     0     0     0     0     0     0
   16.20 0.000E+00     0     0     0     0     0     0     0     0     0     0     0     0     0     0     0     0
   16.60 0.000E+00     0     0     0     0     0     0     0     0     0     0     0     0     0     0     0     0
   17.03 0.000E+00     0     0     0     0     0     0     0     0     0     0     0     0     0     0     0     0
   17.34 0.000E+00     0     0     0     0     0     0     0     0     0     0     0     0     0     0     0     0
   17.68 0.000E+00     0     0     0     0     0     0     0     0     0     0     0     0     0     0     0     0
   18.02 0.000E+00     0     0     0     0     0     0     0     0     0     0     0     0     0     0     0     0
   18.17 0.000E+00     0     0     0     0     0     0     0     0     0     0     0     0     0     0     0     0
   18.61 0.000E+00     0     0     0     0     0     0     0     0     0     0     0     0     0     0     0     0
   19.10 0.000E+00     0     0     0     0     0     0     0     0     0     0     0     0     0     0     0     0
   19.39 0.000E+00     0     0     0     0     0     0     0     0     0     0     0     0     0     0     0     0
   19.84 0.000E+00     0     0     0     0     0     0     0     0     0     0     0     0     0     0     0     0
   20.18 0.000E+00     0     0     0     0     0     0     0     0     0     0     0     0     0     0     0     0
   20.50 0.000E+00     0     0     0     0     0     0     0     0     0     0     0     0     0     0     0     0
   21.05 0.000E+00     0     0     0     0     0     0     0     0     0     0     0     0     0     0     0     0
   21.62 0.000E+00     0     0     0     0     0     0     0     0     0     0     0     0     0     0     0     0
   21.98 0.000E+00     0     0     0     0     0     0     0     0     0     0     0     0     0     0     0     0
   22.30 0.000E+00     0     0     0     0     0     0     0     0     0     0     0     0     0     0     0     0
   22.68 0.000E+00     0     0     0     0     0     0     0     0     0     0     0     0     0     0     0     0
   23.00 0.000E+00     0     0     0     0     0     0     0     0     0     0     0     0     0     0     0     0
   23.40 0.000E+00     0     0     0     0     0     0     0     0     0     0     0     0     0     0     0     0
   24.00 0.000E+00     0     0     0     0     0     0     0     0     0     0     0     0     0     0     0     0
   24.65 0.000E+00     0     0     0     0     0     0     0     0     0     0     0     0     0     0     0     0
   25.24 0.000E+00     0     0     0     0     0     0     0     0     0     0     0     0     0     0     0     0
   25.68 0.000E+00     0     0     0     0     0     0     0     0     0     0     0     0     0     0     0     0
   26.00 0.000E+00     0     0     0     0     0     0     0     0     0     0     0     0     0     0     0     0
   26.40 0.000E+00     0     0     0     0     0     0     0     0     0     0     0     0     0     0     0     0
   26.85 0.000E+00     0     0     0     0     0     0     0     0     0     0     0     0     0     0     0     0
   27.35 0.000E+00     0     0     0     0     0     0     0     0     0     0     0     0     0     0     0     0
   27.85 0.000E+00     0     0     0     0     0     0     0     0     0     0     0     0     0     0     0     0
   28.40 0.000E+00     0     0     0     0     0     0     0     0     0     0     0     0     0     0     0     0
   29.00 0.000E+00     0     0     0     0     0     0     0     0     0     0     0     0     0     0     0     0
   29.60 0.000E+00     0     0     0     0     0     0     0     0     0     0     0     0     0     0     0     0
   30.10 0.000E+00     0     0     0     0     0     0     0     0     0     0     0     0     0     0     0     0
   30.80 0.000E+00     0     0     0     0     0     0     0     0     0     0     0     0     0     0     0     0
   31.80 0.000E+00     0     0     0     0     0     0     0     0     0     0     0     0     0     0     0     0
   32.80 0.000E+00     0     0     0     0     0     0     0     0     0     0     0     0     0     0     0     0
   33.80 0.000E+00     0     0     0     0     0     0     0     0     0     0     0     0     0     0     0     0
   34.80 0.000E+00     0     0     0     0     0     0     0     0     0     0     0     0     0     0     0     0
   35.70 0.000E+00     0     0     0     0     0     0     0     0     0     0     0     0     0     0     0     0
   36.60 0.000E+00     0     0     0     0     0     0     0     0     0     0     0     0     0     0     0     0
   37.50 0.000E+00     0     0     0     0     0     0     0     0     0     0     0     0     0     0     0     0
   38.50 0.000E+00     0     0     0     0     0     0     0     0     0     0     0     0     0     0     0     0
   39.50 0.000E+00     0     0     0     0     0     0     0     0     0     0     0     0     0     0     0     0
   40.50 0.000E+00     0     0     0     0     0     0     0     0     0     0     0     0     0     0     0     0
   41.40 0.000E+00     0     0     0     0     0     0     0     0     0     0     0     0     0     0     0     0
   42.20 0.000E+00     0     0     0     0     0     0     0     0     0     0     0     0     0     0     0     0
   43.00 0.000E+00     0     0     0     0     0     0     0     0     0     0     0     0     0     0     0     0
   44.10 0.000E+00     0     0     0     0     0     0     0     0     0     0     0     0     0     0     0     0
   45.10 0.000E+00     0     0     0     0     0     0     0     0     0     0     0     0     0     0     0     0
   46.00 0.000E+00     0     0     0     0     0     0     0     0     0     0     0     0     0     0     0     0
   47.00 0.000E+00     0     0     0     0     0     0     0     0     0     0     0     0     0     0     0     0
   48.00 0.000E+00     0     0     0     0     0     0     0     0     0     0     0     0     0     0     0     0
   49.00 0.000E+00     0     0     0     0     0     0     0     0     0     0     0     0     0     0     0     0
   50.00 0.000E+00     0     0     0     0     0     0     0     0     0     0     0     0     0     0     0     0
   50.60 0.000E+00     0     0     0     0     0     0     0     0     0     0     0     0     0     0     0     0
   51.20 0.000E+00     0     0     0     0     0     0     0     0     0     0     0     0     0     0     0     0
   52.00 0.000E+00     0     0     0     0     0     0     0     0     0     0     0     0     0     0     0     0
   53.00 0.000E+00     0     0     0     0     0     0     0     0     0     0     0     0     0     0     0     0
   54.00 0.000E+00     0     0     0     0     0     0     0     0     0     0     0     0     0     0     0     0
   55.00 0.000E+00     0     0     0     0     0     0     0     0     0     0     0     0     0     0     0     0
   56.00 0.000E+00     0     0     0     0     0     0     0     0     0     0     0     0     0     0     0     0
   57.00 0.000E+00     0     0     0     0     0     0     0     0     0     0     0     0     0     0     0     0
   58.00 0.000E+00     0     0     0     0     0     0     0     0     0     0     0     0     0     0     0     0
   59.00 0.000E+00     0     0     0     0     0     0     0     0     0     0     0     0     0     0     0     0
   60.00 0.000E+00     0     0     0     0     0     0     0     0     0     0     0     0     0     0     0     0
   61.00 0.000E+00     0     0     0     0     0     0     0     0     0     0     0     0     0     0     0     0
   62.00 0.000E+00     0     0     0     0     0     0     0     0     0     0     0     0     0     0     0     0
   63.00 0.000E+00     0     0     0     0     0     0     0     0     0     0     0     0     0     0     0     0
   64.00 0.000E+00     0     0     0     0     0     0     0     0     0     0     0     0     0     0     0     0
   65.00 0.000E+00     0     0     0     0     0     0     0     0     0     0     0     0     0     0     0     0
   65.80 0.000E+00     0     0     0     0     0     0     0     0     0     0     0     0     0     0     0     0
   66.50 0.000E+00     0     0     0     0     0     0     0     0     0     0     0     0     0     0     0     0
   67.50 0.000E+00     0     0     0     0     0     0     0     0     0     0     0     0     0     0     0     0
   68.50 0.000E+00     0     0     0     0     0     0     0     0     0     0     0     0     0     0     0     0
   69.50 0.000E+00     0     0     0     0     0     0     0     0     0     0     0     0     0     0     0     0
   70.50 0.000E+00     0     0     0     0     0     0     0     0     0     0     0     0     0     0     0     0
   71.60 0.000E+00     0     0     0     0     0     0     0     0     0     0     0     0     0     0     0     0
   72.60 0.000E+00     0     0     0     0     0     0     0     0     0     0     0     0     0     0     0     0
   73.50 0.000E+00     0     0     0     0     0     0     0     0     0     0     0     0     0     0     0     0
   74.50 0.000E+00     0     0     0     0     0     0     0     0     0     0     0     0     0     0     0     0
   75.50 0.000E+00     0     0     0     0     0     0     0     0     0     0     0     0     0     0     0     0
   76.50 0.000E+00     0     0     0     0     0     0     0     0     0     0     0     0     0     0     0     0
   77.50 0.000E+00     0     0     0     0     0     0     0     0     0     0     0     0     0     0     0     0
   78.50 0.000E+00     0     0     0     0     0     0     0     0     0     0     0     0     0     0     0     0
   79.50 0.000E+00     0     0     0     0     0     0     0     0     0     0     0     0     0     0     0     0
   80.50 0.000E+00     0     0     0     0     0     0     0     0     0     0     0     0     0     0     0     0
   81.50 0.000E+00     0     0     0     0     0     0     0     0     0     0     0     0     0     0     0     0
   82.50 0.000E+00     0     0     0     0     0     0     0     0     0     0     0     0     0     0     0     0
   83.50 0.000E+00     0     0     0     0     0     0     0     0     0     0     0     0     0     0     0     0
   84.50 0.000E+00     0     0     0     0     0     0     0     0     0     0     0     0     0     0     0     0
   85.50 0.000E+00     0     0     0     0     0     0     0     0     0     0     0     0     0     0     0     0
   86.50 0.000E+00     0     0     0     0     0     0     0     0     0     0     0     0     0     0     0     0
   87.50 0.000E+00     0     0     0     0     0     0     0     0     0     0     0     0     0     0     0     0
   88.50 0.000E+00     0     0     0     0     0     0     0     0     0     0     0     0     0     0     0     0
   89.50 0.000E+00     0     0     0     0     0     0     0     0     0     0     0     0     0     0     0     0
   90.50 0.000E+00     0     0     0     0     0     0     0     0     0     0     0     0     0     0     0     0
   91.50 0.000E+00     0     0     0     0     0     0     0     0     0     0     0     0     0     0     0     0
   92.50 6.529E-18 95466 91392 87808 84760 82325 80579 79522 79246 79109 79063 79063 79047 79047 79047 79047 79047
   93.50 9.500E-18 95653 91737 88284 85368 83042 81379 80379 80126 79989 79947 79937 79937 79937 79937 79937 79937
   94.50 1.374E-17 95779 91994 88646 85808 83624 82023 81077 80786 80713 80640 80640 80640 80640 80640 80640 80640
   95.50 2.016E-17 95585 91567 88046 85069 82689 80952 79960 79663 79563 79514 79514 79514 79514 79514 79514 79514
   96.50 2.901E-17 95484 91486 87935 84902 82523 80765 79766 79490 79352 79317 79283 79283 79283 79283 79283 79283
   97.50 4.072E-17 95751 91945 88581 85732 83472 81852 80869 80624 80501 80452 80452 80452 80452 80452 80452 80452
   98.50 5.723E-17 95859 92137 88852 86074 83872 82282 81338 81094 80972 80937 80919 80919 80919 80919 80919 80919
   99.50 7.944E-17 96035 92485 89350 86707 84605 83094 82200 81974 81861 81823 81810 81810 81810 81810 81810 81810
  100.50 1.125E-16 95822 92000 88640 85796 83529 81893 80924 80676 80551 80507 80507 80507 80507 80507 80498 80498
  101.50 1.551E-16 95809 92070 88781 86009 83752 82205 81238 80980 80851 80851 80787 80787 80787 80787 80787 80787
  102.50 2.064E-16 96415 93169 90310 87888 85998 84641 83818 83624 83527 83479 83479 83479 83479 83479 83479 83479
  103.50 2.900E-16 95931 92276 89069 86310 84103 82517 81586 81345 81241 81172 81172 81172 81172 81172 81172 81172
  104.50 3.930E-16 95954 92341 89135 86412 84249 82672 81730 81501 81374 81323 81323 81323 81323 81323 81323 81323
  105.50 5.284E-16 96007 92449 89307 86620 84481 82930 82021 81775 81662 81624 81624 81605 81605 81605 81605 81605
  106.50 7.029E-16 96159 92730 89714 87125 85062 83568 82686 82458 82345 82302 82302 82302 82302 82302 82302 82302
  107.50 9.401E-16 96139 92682 89618 87001 84895 83374 82470 82236 82119 82076 82076 82076 82076 82076 82066 82066
  108.50 1.246E-15 96228 92777 89727 87079 84992 83467 82504 82263 82183 82103 82103 82103 82103 82103 82103 82103
  109.50 1.628E-15 96376 93059 90111 87654 85627 84152 83292 83108 82985 82924 82924 82924 82924 82924 82924 82924
  110.50 9.876E-15 91231 82463 73704 64945 56207 47489 38852 34589 30397 26357 24413 22560 20849 19350 18267 18003
  111.50 1.918E-14 91137 82273 73306 64338 55266 46116 36825 32138 27435 22748 20433 18175 16011 14051 12550 12148
  112.50 2.908E-14 91162 82290 73349 64305 55193 45908 36451 31623 26757 21864 19429 17029 14711 12572 10898 10433
  113.50 4.154E-14 91021 82017 72942 63794 54550 45161 35604 30741 25831 20903 18452 16040 13712 11574  9904  9451
  114.50 5.589E-14 91108 82161 73144 64054 54822 45429 35820 30900 25926 20898 18393 15910 13500 11272  9520  9045
  115.50 6.453E-14 91182 82318 73392 64358 55199 45886 36355 31489 26561 21618 19138 16705 14342 12168 10468 10015
  116.50 9.006E-14 91239 82401 73484 64446 55252 45858 36209 31268 26238 21164 18621 16100 13658 11404  9629  9159
  117.50 1.152E-13 91233 82431 73507 64470 55278 45868 36198 31241 26207 21111 18559 16033 13576 11311  9549  9089
  118.50 1.286E-13 91369 82582 73795 64844 55723 46384 36781 31858 26874 21835 19331 16858 14479 12302 10669 10264
  119.50 1.022E-13 91507 82945 74305 65558 56693 47701 38591 34022 29472 25020 22867 20822 18943 17358 16350 16184
  120.50 1.331E-13 91510 82870 74080 65177 56131 46935 37618 32960 28340 23869 21736 19737 17941 16499 15680 15567
  121.50 4.408E-14 94397 88884 83485 78244 73208 68534 64338 62523 60957 59732 59279 58938 58711 58621 58598 58598
  122.50 1.838E-13 91621 83134 74538 65778 56910 47884 38770 34217 29728 25397 23346 21431 19728 18379 17612 17514
  123.50 3.297E-13 91598 83106 74462 65666 56658 47407 37883 33000 28056 23082 20622 18210 15921 13885 12439 12138
  124.50 4.908E-13 91585 83068 74450 65689 56724 47494 37938 33007 27975 22820 20216 17618 15067 12663 10709 10130
  125.50 6.040E-13 91623 83146 74570 65828 56921 47748 38228 33311 28278 23113 20497 17864 15278 12818 10775 10137
  126.50 6.262E-13 91696 83296 74784 66145 57330 48275 38917 34095 29176 24162 21638 19131 16672 14371 12506 11953
  127.50 7.988E-13 91775 83463 75038 66475 57712 48686 39309 34452 29482 24374 21783 19179 16612 14159 12117 11470
  128.50 9.491E-13 91782 83479 75050 66463 57686 48636 39248 34390 29417 24328 21757 19187 16658 14266 12317 11737
  129.50 1.156E-12 91869 83625 75268 66739 57993 48962 39559 34689 29680 24542 21938 19325 16756 14317 12310 11704
  130.50 1.190E-12 91849 83630 75286 66790 58092 49143 39882 35118 30261 25336 22866 20420 18050 15874 14176 13723
  131.50 1.521E-12 91913 83761 75477 66995 58337 49369 40046 35220 30283 25233 22689 20145 17659 15339 13485 12965
  132.50 1.643E-12 92027 83932 75715 67316 58722 49842 40627 35867 31010 26074 23603 21144 18771 16573 14881 14425
  133.50 1.854E-12 92125 84142 75998 67691 59115 50313 41165 36446 31634 26748 24299 21882 19542 17400 15755 15324
  134.50 2.182E-12 92117 84143 75985 67690 59166 50367 41269 36572 31787 26934 24505 22108 19785 17658 16013 15573
  135.50 2.513E-12 92201 84282 76204 67967 59491 50736 41624 36956 32177 27334 24910 22523 20223 18122 16530 16120
  136.50 2.739E-12 92260 84410 76415 68237 59876 51223 42278 37678 33023 28317 25977 23677 21471 19474 17970 17587
  137.50 2.991E-12 92377 84654 76764 68740 60448 51956 43129 38616 34035 29415 27131 24895 22758 20846 19432 19094
  138.50 3.308E-12 92563 84976 77267 69347 61215 52842 44166 39722 35218 30683 28416 26206 24093 22192 20777 20426
  139.50 3.780E-12 92619 85132 77460 69630 61587 53254 44656 40238 35767 31243 29021 26825 24720 22831 21431 21093
  140.50 4.518E-12 92652 85170 77512 69677 61598 53276 44622 40173 35657 31098 28840 26605 24480 22554 21129 20775
  141.50 5.100E-12 92745 85333 77765 70020 62039 53784 45235 40843 36373 31863 29608 27412 25294 23392 21961 21608
  142.50 5.873E-12 92798 85459 77950 70271 62353 54163 45650 41257 36796 32283 30019 27805 25677 23770 22340 21982
  143.50 6.878E-12 92818 85490 78002 70326 62402 54216 45696 41306 36828 32306 30052 27828 25705 23771 22303 21940
  144.20 8.675E-12 92761 85383 77833 70063 62040 53695 44945 40392 35723 30939 28519 26110 23758 21568 19850 19389
  144.70 8.063E-12 92918 85700 78321 70755 62942 54856 46422 42069 37616 33089 30820 28575 26405 24408 22882 22498
  145.50 9.498E-12 92914 85671 78259 70636 62761 54580 46031 41588 37050 32417 30091 27785 25553 23510 21952 21562
  146.50 1.173E-11 92924 85678 78269 70639 62728 54493 45831 41313 36667 31901 29480 27067 24706 22498 20750 20273
  147.50 1.330E-11 93008 85865 78496 70940 63113 54940 46346 41850 37218 32451 30030 27609 25226 22985 21203 20714
  148.50 1.462E-11 93092 86047 78796 71341 63611 55547 47052 42613 38037 33331 30937 28543 26190 23988 22244 21772
  149.50 1.885E-11 92997 85836 78462 70875 62918 54642 45910 41316 36568 31660 29162 26653 24180 21857 20000 19491
  150.50 2.264E-11 93021 85866 78489 70892 62986 54638 45848 41201 36383 31378 28816 26232 23670 21232 19249 18688
  151.20 1.852E-11 93251 86393 79374 72138 64633 56857 48683 44444 40097 35653 33413 31193 29033 27052 25535 25151
  151.70 2.281E-11 93161 86190 79044 71591 63875 55809 47260 42793 38167 33402 30986 28566 26199 23998 22306 21881
  152.50 4.619E-11 92617 85083 77376 69474 61312 52804 43862 39143 34228 29032 26304 23468 20524 17447 14310 12617
  153.50 7.009E-11 92538 84905 77101 69068 60765 52119 42988 38194 33172 27850 25039 22100 18990 15680 12130 10000
  154.50 6.269E-11 92567 84974 77205 69246 61030 52512 43580 38922 34072 28984 26336 23576 20689 17642 14403 12458
  155.50 9.559E-11 92499 84842 76996 68930 60603 51951 42850 38079 33100 27848 25076 22178 19113 15807 12156  9816
  156.50 9.167E-11 92658 85164 77474 69554 61372 52842 43875 39162 34242 29050 26312 23454 20432 17181 13625 11378
  157.50 1.556E-10 92545 84897 77057 68959 60585 51851 42635 37783 32719 27352 24518 21549 18393 14961 11086  8445
  158.50 1.889E-10 92589 84966 77184 69084 60773 52033 42811 37946 32848 27438 24574 21556 18338 14828 10826  8068
  159.50 2.209E-10 92576 84971 77139 69081 60706 51969 42748 37886 32798 27402 24545 21539 18330 14812 10779  7949
  160.50 2.392E-10 92600 85033 77258 69231 60911 52216 43018 38181 33098 27696 24829 21802 18566 15013 10936  8123
  161.50 2.616E-10 92622 85092 77370 69419 61124 52485 43310 38494 33406 27989 25107 22057 18788 15191 11074  8253
  162.50 2.881E-10 92850 85491 77890 70045 61888 53315 44186 39361 34262 28816 25908 22825 19504 15831 11569  8570
  163.50 3.409E-10 92725 85274 77618 69669 61455 52801 43620 38750 33646 28181 25265 22182 18874 15230 11050  8167
  164.50 4.631E-10 92723 85252 77564 69639 61369 52710 43511 38631 33492 27985 25049 21939 18583 14856 10490  7346
  165.50 3.078E-10 92755 85348 77745 69851 61696 53151 44120 39344 34340 29019 26196 23229 20071 16647 12836 10348
  166.50 5.344E-10 92814 85423 77807 69929 61714 53106 43937 39072 33963 28481 25561 22474 19124 15421 11061  7884
  167.20 3.896E-10 92839 85524 77977 70175 62064 53568 44533 39759 34702 29338 26489 23473 20254 16743 12782 10131
  167.70 1.407E-09 90547 81947 73774 65672 57512 49104 40235 35544 30597 25302 22488 19510 16326 12850  8870  5971
  168.50 1.549E-09 91414 83280 75274 67269 59057 50542 41524 36733 31685 26275 23383 20329 17050 13441  9251  6119
  169.50 1.836E-09 92102 84423 76688 68900 60839 52397 43344 38497 33339 27767 24766 21574 18132 14308  9837  6449
  170.50 2.071E-09 91357 83197 75181 67214 59054 50604 41642 36871 31825 26403 23496 20420 17103 13448  9189  6007
  171.50 2.512E-09 85629 74443 65247 57205 49602 42118 34407 30366 26139 21636 19240 16712 14009 11047  7643  5167
  172.50 2.920E-09 87260 76986 68253 60274 52603 44863 36815 32558 28086 23295 20733 18024 15110 11897  8171  5411
  173.50 3.928E-09 83630 71410 61864 53921 46690 39689 32510 28768 24819 20606 18355 15970 13406 10575  7294  4863
  174.50 5.047E-09 84605 72716 63226 55181 47850 40717 33426 29622 25599 21280 18982 16533 13891 10965  7543  4981
  175.50 7.533E-09 81747 68167 57905 49781 42825 36333 29829 26444 22899 19089 17058 14894 12546  9939  6874  4561
  176.50 5.956E-09 85292 73858 64657 56800 49614 42579 35309 31464 27401 23002 20635 18083 15321 12218  8522  5677
  177.50 7.613E-09 82609 69500 59438 51320 44266 37646 30960 27492 23828 19913 17812 15565 13135 10426  7223  4794
  178.50 9.936E-09 82216 68820 58575 50393 43357 36806 30254 26842 23269 19424 17361 15167 12782 10125  6990  4596
  179.50 1.482E-08 78610 62868 51383 42868 36174 30385 24865 22058 19130 16012 14345 12564 10641  8489  5943  4018
  180.50 1.282E-08 81903 68222 57777 49516 42535 36115 29743 26435 22956 19212 17200 15055 12715 10101  6995  4612
  181.50 1.087E-08 85106 73459 64057 56063 48786 41739 34517 30718 26716 22392 20055 17562 14848 11803  8167  5360
  182.50 1.414E-08 83239 70332 60311 52164 45092 38472 31832 28373 24724 20792 18670 16393 13904 11103  7751  5150
  183.50 1.395E-08 85376 73835 64437 56459 49226 42237 35082 31312 27326 22996 20659 18143 15398 12294  8573  5658
  184.50 9.750E-09 89426 80287 72092 64400 56862 49190 41097 36769 32144 27108 24369 21426 18195 14544 10139  6676
  185.50 1.726E-08 83024 69930 59791 51587 44589 38105 31628 28244 24670 20800 18702 16454 13992 11211  7856  5235
  186.50 2.256E-08 80718 66223 55319 46941 40098 34012 28090 25040 21848 18409 16556 14570 12398  9951  7004  4703
  187.50 2.336E-08 81721 67723 57063 48716 41794 35569 29473 26323 23009 19439 17504 15424 13151 10574  7457  5004
  188.50 2.495E-08 81844 67936 57234 48898 41964 35731 29647 26505 23198 19631 17699 15623 13343 10758  7619  5138
  189.50 3.395E-08 80677 65979 54875 46362 39499 33520 27764 24819 21726 18395 16589 14648 12515 10091  7140  4804
  190.50 3.219E-08 81361 67133 56260 47841 40944 34824 28910 25859 22656 19199 17325 15309 13094 10572  7496  5054
  191.50 3.558E-08 81675 67678 56998 48651 41793 35610 29595 26473 23193 19643 17712 15638 13353 10750  7577  5045
  192.50 2.943E-08 85933 74720 65511 57696 50629 43765 36731 32997 29018 24669 22287 19711 16864 13605  9602  6357
  193.50 1.711E-08 92461 85213 78083 70953 63647 55868 47423 42811 37814 32291 29246 25944 22285 18077 12864  8539
  194.50 4.481E-08 82772 69426 59049 50815 43874 37603 31422 28208 24816 21140 19132 16958 14555 11796  8393  5637
  195.50 4.668E-08 82969 69773 59512 51307 44366 38046 31791 28535 25086 21347 19306 17097 14659 11864  8421  5636
  196.70 6.318E-08 81751 67695 56933 48528 41659 35565 29677 26654 23457 20006 18123 16081 13829 11233  8020  5410
  197.60 5.272E-08 84560 72401 62709 54704 47724 41199 34617 31184 27523 23502 21301 18925 16275 13219  9423  6322
  198.40 7.562E-08 81275 66662 55382 46668 39712 33748 28154 25311 22322 19109 17350 15446 13330 10891  7848  5360
  199.50 8.345E-08 80383 65081 53373 44446 37472 31660 26327 23643 20839 17819 16177 14404 12427 10161  7331  5020
  200.50 7.684E-08 81572 67022 55713 46942 39927 33967 28397 25560 22605 19404 17647 15747 13626 11180  8106  5573
  201.50 8.303E-08 81681 67253 56052 47320 40311 34301 28652 25774 22763 19511 17729 15802 13646 11168  8057  5492
  202.50 6.256E-08 84159 71499 61365 53117 46100 39738 33488 30227 26774 23002 20924 18670 16160 13240  9572  6528
  203.50 9.602E-08 81650 67194 55978 47251 40262 34285 28671 25818 22829 19590 17819 15903 13758 11279  8164  5578
  204.50 1.130E-07 81301 66619 55248 46451 39451 33522 28009 25221 22301 19150 17425 15558 13469 11053  8004  5469
  205.50 1.084E-07 82537 68699 57841 49271 42251 36125 30295 27306 24170 20756 18884 16854 14585 11946  8623  5850
  206.50 1.054E-07 83121 69639 58966 50436 43387 37173 31205 28150 24934 21423 19497 17410 15076 12362  8932  6064
  207.40 1.162E-07 83348 70129 59682 51317 44346 38141 32134 29028 25749 22160 20189 18046 15645 12840  9294  6318
  207.80 4.288E-07 80504 63456 48927 36917 27332 20005 14629 12521 10690  9018  8197  7358  6465  5471  4279  3372
  208.50 6.222E-07 80665 63388 48393 35792 25667 17985 12541 10516  8841  7395  6713  6030  5323  4555  3660  3015
  209.50 5.624E-07 80921 63887 49075 36593 26529 18812 13256 11159  9408  7879  7151  6422  5661  4831  3851  3126
  210.50 5.293E-07 81617 65086 50576 38220 28094 20196 14355 12112 10223  8570  7786  6998  6178  5281  4215  3418
  211.50 6.089E-07 81524 64937 50370 37970 27837 19954 14158 11941 10074  8440  7661  6880  6063  5167  4101  3291
  212.50 5.293E-07 81863 65520 51143 38863 28736 20801 14878 12581 10623  8891  8060  7221  6339  5367  4202  3304
  213.50 4.938E-07 82159 66079 51904 39753 29688 21729 15743 13382 11351  9530  8649  7756  6815  5772  4510  3524
  214.50 6.912E-07 82075 65828 51418 39019 28733 20616 14569 12241 10285  8585  7785  6985  6153  5245  4165  3342
  215.50 6.885E-07 82048 65766 51344 38954 28686 20610 14611 12308 10367  8674  7872  7068  6228  5306  4202  3349
  216.50 5.642E-07 82418 66572 52605 40606 30663 22740 16691 14277 12169 10255  9321  8368  7359  6235  4864  3768
  217.50 5.807E-07 82211 66196 52110 40090 30170 22352 16458 14119 12080 10214  9297  8357  7358  6239  4867  3758
  218.50 8.206E-07 82610 66719 52486 40105 29710 21387 15111 12674 10625  8858  8029  7206  6351  5417  4299  3430
  219.50 7.627E-07 82536 66750 52760 40711 30667 22669 16599 14186 12095 10210  9292  8357  7366  6257  4893  3788
  220.50 7.484E-07 82857 67263 53381 41328 31227 23089 16876 14391 12242 10307  9371  8417  7408  6284  4904  3784
  221.50 5.181E-07 83266 68211 54912 43447 33835 26037 19880 17304 14959 12723 11592 10413  9135  7682  5858  4331
  222.50 6.543E-07 83494 68455 55021 43313 33394 25294 18936 16323 14003 11852 10789  9693  8521  7200  5556  4185
  223.50 9.425E-07 83523 68382 54727 42695 32424 24000 17422 14790 12509 10498  9536  8569  7556  6436  5068  3965
  224.50 8.939E-07 83645 68598 55006 43025 32778 24365 17776 15125 12820 10770  9785  8792  7749  6589  5165  4002
  225.50 6.275E-07 84159 69673 56685 45259 35458 27315 20749 17992 15492 13143 11970 10755  9452  7973  6116  4545
  226.50 5.664E-07 83810 69209 56250 45039 35558 27790 21522 18838 16372 13974 12749 11464 10065  8462  6428  4677
  227.50 6.382E-07 84127 69727 56879 45675 36133 28251 21890 19179 16688 14281 13059 11780 10392  8803  6785  5052
  228.50 9.922E-07 84177 69542 56229 44366 34106 25539 18706 15914 13475 11298 10260  9221  8128  6919  5434  4211
  229.50 7.773E-07 84318 69896 56851 45311 35353 27055 20391 17612 15129 12839 11708 10548  9310  7913  6165  4691
  230.50 1.021E-06 84456 70049 56905 45142 34897 26288 19373 16523 14035 11792 10715  9633  8495  7227  5660  4351
  231.50 7.980E-07 84637 70526 57782 46491 36717 28521 21842 19010 16429 13972 12744 11474 10098  8526  6530  4807
  232.50 6.013E-07 85731 72609 60702 50091 40778 32779 25994 22967 20090 17246 15759 14198 12486 10509  7969  5743
  233.50 4.903E-07 85866 73078 61677 51642 42913 35386 28799 25719 22660 19513 17832 16025 14018 11670  8636  5968
  234.50 2.711E-07 88270 77647 68167 59609 51900 44781 37883 34356 30664 26640 24423 21996 19266 16035 11822  8108
  235.50 7.148E-07 85241 71796 59737 49105 39913 32107 25532 22608 19796 16998 15543 13990 12293 10318  7763  5499
  236.50 3.286E-07 88131 77419 67742 59038 51156 43914 37005 33506 29842 25876 23701 21324 18646 15481 11357  7718
  237.50 4.844E-07 86767 74814 64141 54666 46367 39017 32370 29149 25888 22440 20566 18534 16255 13567 10043  6897
  238.50 2.343E-07 90055 80922 72514 64703 57320 50149 42851 38967 34827 30239 27691 24891 21729 17994 13158  8963
  239.50 3.262E-07 88841 78725 69528 61189 53587 46413 39424 35837 32005 27848 25543 23013 20150 16754 12305  8363
  240.50 3.277E-07 89106 79219 70278 62161 54654 47574 40494 36802 32896 28608 26225 23610 20647 17135 12542  8486
  241.50 4.268E-07 87816 76640 66495 57310 49086 41659 34817 31490 28093 24485 22514 20375 17971 15127 11385  8027
  242.50 8.994E-07 86224 73427 61686 51079 41661 33500 26551 23471 20580 17745 16289 14754 13075 11130  8607  6341
  243.50 9.102E-07 86684 74225 62701 52197 42782 34531 27423 24258 21281 18370 16875 15315 13601 11624  9044  6730
  244.50 1.149E-06 86362 73568 61723 50914 41262 32846 25692 22567 19669 16893 15492 14038 12454 10644  8311  6225
  245.50 1.284E-06 86371 73489 61511 50530 40670 32033 24712 21534 18629 15911 14564 13170 11682  9984  7819  5894
  246.50 1.030E-06 86495 73922 62388 51942 42670 34583 27650 24544 21602 18680 17175 15583 13825 11786  9115  6700
  247.50 9.076E-07 86778 74438 63067 52743 43521 35445 28471 25342 22345 19359 17805 16164 14346 12219  9430  6897
  248.50 4.458E-07 88268 77658 68102 59601 51952 44998 38403 35038 31539 27681 25550 23194 20518 17326 13093  9269
  249.50 6.204E-07 87830 76564 66215 56834 48404 40861 34026 30787 27531 24113 22276 20293 18053 15393 11863  8622
  250.50 1.153E-06 86522 73972 62428 51969 42671 34597 27693 24614 21700 18820 17329 15742 13990 11943  9245  6776
  251.30 3.176E-07 93293 86870 80636 74465 68199 61618 54440 50409 46001 40932 38035 34824 31080 26549 20428 14754
  251.80 2.222E-07 95230 90324 85194 79748 73897 67462 60036 55806 51080 45590 42466 38938 34851 29892 23195 16953
  252.50 2.759E-07 93077 86517 80138 73904 67633 61073 53933 49982 45596 40594 37767 34607 30950 26524 20558 15024
  253.50 6.101E-07 89051 78741 69103 60170 51926 44370 37371 33994 30585 27012 25078 22980 20620 17800 14030 10508
  254.50 6.646E-07 89257 79145 69681 60894 52784 45305 38339 34953 31538 27942 25986 23864 21457 18568 14646 10921
  255.50 1.503E-06 88623 77645 66999 56853 47219 38197 29900 26061 22448 19035 17372 15709 13979 12069  9707  7671
  256.50 1.017E-06 88948 78387 68358 58899 50049 41839 34267 30688 27188 23658 21819 19862 17699 15182 11849  8778
  257.50 1.386E-06 88745 77994 67677 57872 48622 39978 31991 28240 24632 21104 19322 17482 15505 13247 10354  7749
  258.50 1.213E-06 88706 77988 67807 58219 49266 40973 33306 29678 26134 22572 20717 18763 16603 14097 10800  7782
  259.50 1.041E-06 89068 78770 69087 60010 51547 43660 36244 32632 29001 25216 23189 20999 18549 15658 11835  8325
  260.50 8.723E-07 89190 79090 69701 61011 52998 45546 38450 34896 31228 27273 25118 22744 20062 16852 12576  8660
  261.50 7.592E-07 89937 80440 71523 63172 55321 47893 40688 37026 33219 29083 26818 24315 21483 18098 13593  9445
  262.50 1.182E-06 88832 78215 68316 59120 50626 42800 35533 32014 28477 24772 22783 20626 18215 15347 11540  8036
  263.50 2.281E-06 88996 78299 67865 57826 48181 39040 30535 26563 22788 19189 17427 15651 13801 11749  9185  6905
  264.50 3.200E-06 89188 78594 68187 58094 48313 38969 30150 26003 22066 18353 16572 14825 13066 11200  8981  7116
  265.50 4.455E-06 89809 79663 69585 59641 49832 40247 30976 26487 22180 18076 16121 14231 12395 10550  8530  7008
  266.50 2.629E-06 89426 79080 69000 59186 49715 40700 32161 28117 24237 20506 18676 16835 14933 12849 10281  8049
  267.50 3.171E-06 89341 78934 68716 58814 49227 40050 31381 27269 23333 19574 17748 15932 14078 12081  9656  7578
  268.50 3.657E-06 89691 79519 69511 59666 50068 40744 31829 27536 23429 19497 17596 15721 13836 11851  9519  7591
  269.50 2.715E-06 89650 79484 69540 59853 50424 41326 32641 28494 24494 20645 18759 16877 14943 12843 10287  8077
  270.50 3.367E-06 89872 79893 70033 60380 50906 41729 32848 28571 24413 20392 18426 16478 14511 12432  9997  7989
  271.50 2.421E-06 89674 79554 69682 60058 50805 41884 33387 29327 25399 21574 19674 17749 15733 13499 10698  8199
  272.50 1.975E-06 88911 78278 68152 58582 49635 41377 33828 30294 26856 23418 21630 19737 17641 15175 11878  8759
  273.50 2.557E-06 89167 78608 68479 58741 49472 40790 32722 28940 25303 21756 19965 18111 16124 13848 10892  8150
  274.50 1.165E-06 90730 81914 73485 65459 57811 50472 43262 39597 35777 31622 29330 26815 23949 20481 15785 11330
  275.50 1.710E-06 90175 80643 71462 62690 54351 46404 38836 35140 31421 27561 25497 23281 20801 17860 13906 10140
  276.50 2.327E-06 90116 80447 71036 61882 53116 44693 36682 32836 29050 25243 23266 21186 18908 16257 12755  9441
  277.50 2.451E-06 90249 80743 71481 62505 53896 45655 37850 34088 30355 26540 24537 22399 20037 17250 13505  9894
  278.50 1.268E-06 92902 86041 79259 72539 65883 59125 52003 48162 43991 39298 36640 33659 30205 25938 19976 14172
  279.50 4.927E-07 95474 90725 85691 80313 74447 67912 60402 56079 51228 45586 42338 38705 34483 29389 22549 16406
  280.50 6.280E-07 95064 89984 84713 79140 73185 66624 59172 54936 50175 44682 41513 37946 33822 28790 21975 15723
  281.50 2.158E-06 91196 82623 74282 66172 58387 50834 43452 39722 35867 31724 29458 26979 24157 20741 16043 11455
  282.50 3.660E-06 90000 80164 70519 61093 51995 43279 35082 31175 27404 23672 21773 19798 17664 15205 11973  8891
  283.50 3.729E-06 89944 80021 70314 60847 51676 42907 34621 30705 26924 23223 21362 19440 17377 15017 11928  9000
  284.50 2.723E-06 89570 79545 69923 60815 52259 44289 36945 33452 30015 26508 24657 22666 20437 17771 14117 10521
  285.50 1.361E-06 91403 83174 75239 67796 60676 53850 47120 43659 40000 35944 33666 31117 28156 24504 19383 14335
  286.50 4.286E-06 89454 79071 68922 59053 49557 40551 32198 28325 24638 21141 19414 17660 15805 13710 10992  8430
  287.50 5.572E-06 90327 80635 70962 61342 51813 42426 33327 28930 24695 20657 18701 16766 14822 12753 10264  8087
  288.50 4.626E-06 90424 80934 71509 62192 53026 44012 35257 30999 26848 22763 20750 18720 16621 14328 11489  8956
  289.50 5.448E-06 90859 81681 72467 63234 53983 44750 35591 31076 26634 22283 20136 18019 15877 13614 10938  8658
  291.00 7.349E-06 90965 81834 72636 63356 54021 44646 35270 30616 26017 21513 19309 17132 14968 12746 10227  8201
  293.00 6.421E-06 91092 82106 73057 63962 54820 45647 36459 31880 27348 22862 20651 18439 16212 13876 11142  8846
  295.00 6.249E-06 90975 81885 72764 63610 54441 45287 36182 31669 27220 22852 20691 18531 16339 14020 11250  8851
  297.00 6.901E-06 90987 81916 72772 63585 54369 45138 35951 31401 26909 22504 20345 18186 16012 13720 11016  8697
  299.00 7.053E-06 91082 82107 73075 63987 54842 45669 36495 31944 27407 22955 20743 18545 16319 13981 11207  8818
  301.00 7.587E-06 90971 81851 72664 63411 54119 44800 35548 30974 26493 22117 19982 17859 15724 13470 10791  8451
  303.00 7.770E-06 91338 82561 73668 64672 55560 46345 37053 32407 27786 23230 20991 18752 16486 14106 11310  8898
  305.00 8.167E-06 91319 82527 73638 64614 55492 46272 37003 32374 27795 23289 21073 18869 16628 14277 11475  9040
  307.00 8.539E-06 91428 82761 73990 65101 56107 46984 37768 33130 28505 23902 21618 19335 17028 14580 11698  9212
  309.00 8.623E-06 91395 82697 73895 65012 56048 46991 37910 33364 28841 24353 22127 19889 17604 15180 12270  9752
  311.00 9.234E-06 91802 83463 74995 66363 57548 48538 39311 34611 29868 25103 22710 20305 17869 15302 12324  9817
  313.00 9.167E-06 91600 83070 74408 65594 56627 47529 38322 33697 29104 24545 22286 20017 17716 15261 12338  9782
  315.00 8.712E-06 91758 83414 74966 66403 57702 48864 39876 35331 30751 26136 23818 21465 19043 16449 13326 10593
  317.00 9.290E-06 91905 83692 75328 66825 58159 49322 40291 35705 31087 26448 24101 21733 19300 16685 13531 10764
  319.00 8.300E-06 91904 83699 75373 66916 58325 49578 40687 36193 31663 27084 24783 22434 20000 17361 14108 11188
  321.00 9.560E-06 91935 83724 75345 66778 58033 49100 39990 35397 30795 26203 23902 21590 19205 16653 13536 10753
  323.00 7.929E-06 91916 83731 75419 66995 58444 49779 41001 36587 32148 27683 25426 23105 20684 17997 14617 11486
  325.00 1.045E-05 92392 84641 76679 68469 59990 51187 42029 37301 32498 27617 25148 22641 20077 17330 14048 11177
  327.00 1.206E-05 92537 84909 76973 68814 60332 51501 42247 37454 32562 27579 25050 22504 19892 17131 13872 11070
  329.00 1.160E-05 92586 84888 77000 68862 60448 51698 42595 37888 33095 28216 25733 23216 20621 17836 14491 11560
  331.00 1.177E-05 92353 84537 76508 68267 59779 51028 41997 37383 32693 27952 25548 23101 20578 17850 14545 11589
  333.00 1.201E-05 92506 84846 76928 68793 60383 51665 42598 37935 33172 28335 25878 23389 20808 18027 14671 11674
  335.00 1.199E-05 92494 84737 76822 68649 60209 51468 42410 37773 33061 28290 25880 23428 20892 18140 14779 11735
  337.00 1.009E-05 92161 84172 76056 67820 59455 50961 42359 38018 33647 29237 26987 24678 22240 19514 16046 12755
  339.00 1.127E-05 92280 84445 76406 68163 59725 51074 42245 37773 33283 28758 26469 24135 21695 18988 15581 12396
  341.00 1.136E-05 92430 84780 76893 68785 60440 51849 43019 38521 33988 29410 27086 24718 22236 19498 16048 12826
  343.00 1.135E-05 92599 85048 77313 69366 61189 52775 44115 39692 35216 30670 28344 25956 23445 20634 17057 13692
  345.00 1.238E-05 92892 85460 77908 70040 61866 53344 44443 39855 35178 30420 27997 25525 22956 20129 16616 13352
  347.00 1.276E-05 92947 85658 78103 70274 62108 53574 44632 40000 35282 30478 28033 25533 22939 20086 16544 13276
  349.00 1.370E-05 93066 85912 78540 70818 62745 54241 45255 40562 35737 30788 28255 25672 22978 20044 16438 13161
  351.00 1.424E-05 93188 86096 78792 71138 63090 54607 45604 40892 36032 31039 28483 25871 23153 20197 16573 13279
  353.00 1.349E-05 93180 86212 78873 71282 63284 54826 45834 41127 36264 31268 28703 26086 23351 20371 16686 13306
  355.00 1.553E-05 93239 86220 78944 71217 63142 54559 45428 40637 35712 30663 28088 25467 22743 19794 16182 12878
  357.00 1.240E-05 92903 85645 78065 70234 62121 53677 44911 40411 35839 31194 28823 26379 23798 20911 17185 13581
  359.00 1.202E-05 93178 86106 78819 71265 63403 55191 46581 42105 37512 32779 30341 27804 25116 22088 18203 14484
  361.00 1.372E-05 93513 86735 79665 72281 64526 56319 47587 42996 38236 33309 30758 28127 25343 22267 18389 14767
  363.00 1.384E-05 93569 86922 79986 72760 65137 57059 48418 43858 39104 34155 31575 28909 26084 22948 19010 15332
  364.00 1.407E-05 93532 86780 79815 72566 64883 56795 48181 43646 38948 34051 31507 28870 26077 22957 19026 15352
  365.00 1.622E-05 93527 86806 79840 72503 64797 56560 47756 43107 38280 33255 30660 27984 25166 22065 18212 14649
  367.00 1.637E-05 93586 86988 80086 72755 65119 56921 48143 43500 38674 33647 31045 28357 25522 22401 18522 14954
  369.00 1.544E-05 93653 87111 80246 73122 65609 57610 49087 44592 39916 35032 32481 29825 26995 23815 19799 16023
  371.00 1.638E-05 94200 88095 81685 74786 67460 59481 50739 46026 41062 35818 33083 30244 27247 23944 19841 16038
  373.00 1.381E-05 93845 87473 80811 73715 66227 58248 49725 45250 40623 35822 33338 30753 28001 24888 20825 16828
  375.00 1.557E-05 93706 87091 80090 72768 64997 56692 47893 43288 38555 33693 31207 28645 25960 22974 19159 15466
  377.00 1.804E-05 93736 87195 80211 72838 64967 56541 47494 42744 37844 32810 30233 27600 24856 21851 18082 14523
  379.00 1.956E-05 93200 86145 78681 70910 62730 54090 45036 40348 35557 30685 28216 25706 23108 20286 16774 13461
  381.00 2.061E-05 92722 85104 77244 69044 60602 51820 42790 38200 33581 28947 26623 24279 21853 19209 15881 12717
  383.00 1.308E-05 92661 85245 77676 70000 62286 54557 46843 42989 39113 35145 33066 30856 28410 25497 21430 17202
  385.00 1.944E-05 91770 83385 74794 66101 57305 48529 39835 35571 31384 27274 25231 23158 20988 18544 15334 12145
  387.00 1.961E-05 91382 82662 73891 65069 56298 47680 39266 35171 31158 27211 25227 23202 21066 18644 15451 12290
  389.00 1.911E-05 93511 86709 79592 72057 64103 55782 47022 42491 37860 33124 30696 28205 25573 22648 18901 15290
  391.00 2.274E-05 92392 84697 76781 68734 60510 52111 43575 39239 34859 30440 28201 25915 23514 20849 17436 14129
  393.00 1.112E-05 93345 86709 80009 73264 66448 59532 52428 48768 44946 40854 38624 36178 33372 29937 25018 19802
  395.00 1.866E-05 92765 85423 77921 70364 62647 54823 46827 42776 38666 34459 32267 29968 27460 24534 20568 16495
  397.00 1.270E-05 93858 87559 81102 74433 67575 60496 53150 49331 45354 41118 38819 36323 33496 30055 25173 20008
  399.00 2.653E-05 92876 85526 77987 70147 62118 53750 45081 40596 36008 31331 28952 26517 23984 21202 17712 14395
  401.00 2.890E-05 92699 85190 77474 69585 61453 53080 44429 39931 35363 30671 28277 25837 23308 20567 17197 14076
  403.00 2.988E-05 92671 85141 77443 69511 61379 53012 44311 39826 35241 30542 28136 25683 23146 20408 17062 13986
  405.00 2.926E-05 92720 85270 77580 69720 61620 53247 44600 40123 35578 30885 28500 26070 23548 20810 17433 14282
  407.00 2.876E-05 92733 85292 77643 69750 61648 53303 44680 40229 35709 31078 28717 26307 23804 21078 17688 14489
  409.00 3.059E-05 93723 87087 80124 72802 65021 56751 47859 43151 38248 33148 30507 27820 25034 22043 18421 15116
  411.00 2.837E-05 94431 88544 82235 75502 68171 60204 51428 46669 41628 36306 33539 30666 27660 24395 20409 16761
  413.00 3.201E-05 93096 85911 78507 70790 62762 54420 45611 41050 36332 31490 29007 26482 23877 21068 17632 14452
  415.00 3.339E-05 92932 85654 78137 70320 62264 53848 45043 40491 35789 30967 28518 26020 23444 20677 17299 14160
  417.00 3.343E-05 92940 85642 78104 70326 62279 53934 45199 40682 36045 31259 28812 26324 23748 20966 17556 14367
  419.00 3.287E-05 92881 85549 78004 70216 62184 53879 45208 40736 36173 31457 29054 26605 24064 21308 17901 14697
  421.00 3.319E-05 92950 85688 78216 70503 62549 54324 45767 41308 36728 31998 29590 27114 24538 21741 18289 15062
  423.00 3.195E-05 93052 85884 78498 70892 63067 54930 46448 42066 37527 32864 30466 28003 25437 22626 19130 15844
  425.00 3.312E-05 92965 85749 78291 70622 62711 54559 46045 41667 37168 32548 30166 27742 25214 22458 19025 15794
  427.00 3.156E-05 92966 85710 78264 70627 62801 54721 46388 42110 37769 33302 31004 28653 26185 23451 19978 16629
  429.00 2.980E-05 92852 85537 78087 70470 62685 54732 46577 42383 38087 33691 31433 29094 26624 23869 20342 16916
  431.00 2.569E-05 92799 85442 78007 70533 62943 55274 47489 43558 39510 35372 33211 30950 28521 25738 22051 18350
  433.00 3.260E-05 94080 87822 81227 74233 66779 58834 50245 45706 40951 36012 33466 30828 28064 25034 21248 17672
  435.00 3.056E-05 94503 88645 82428 75753 68554 60766 52291 47742 42965 37991 35406 32755 29928 26803 22847 19058
  437.00 3.710E-05 93423 86550 79434 71968 64205 56065 47466 42992 38356 33612 31159 28652 26070 23245 19749 16464
  439.00 3.465E-05 93189 86147 78903 71429 63694 55671 47330 43001 38586 34026 31688 29293 26768 23986 20468 17088
  441.00 3.645E-05 93361 86475 79369 71989 64307 56269 47819 43402 38848 34129 31715 29246 26642 23802 20258 16900
  443.00 3.722E-05 93552 86889 79957 72757 65234 57308 48898 44438 39844 35008 32536 29957 27270 24342 20693 17265
  445.00 3.731E-05 93594 86947 80059 72876 65371 57491 49102 44653 40016 35192 32672 30072 27365 24412 20745 17312
  447.00 3.931E-05 93666 87077 80234 73086 65607 57721 49275 44798 40117 35207 32663 30018 27270 24276 20605 17209
  449.00 3.927E-05 93761 87268 80494 73440 66056 58238 49860 45404 40718 35829 33257 30609 27858 24826 21110 17667
  451.00 4.343E-05 93829 87382 80659 73636 66222 58347 49850 45314 40548 35505 32881 30187 27354 24315 20638 17290
  453.00 3.970E-05 93829 87406 80705 73728 66398 58615 50277 45819 41159 36196 33627 30957 28161 25108 21353 17874
  455.00 4.101E-05 93831 87393 80712 73714 66350 58547 50183 45721 41039 36089 33528 30871 28066 25043 21297 17835
  457.00 4.386E-05 93867 87483 80825 73849 66484 58664 50251 45736 41017 36001 33402 30711 27907 24852 21119 17706
  459.00 4.139E-05 93912 87582 80986 74076 66828 59121 50834 46388 41725 36772 34187 31529 28703 25634 21834 18314
  461.00 4.259E-05 93942 87626 81052 74149 66894 59169 50857 46419 41747 36793 34210 31533 28739 25663 21909 18425
  463.00 4.192E-05 93965 87667 81107 74237 66985 59303 51002 46589 41937 37023 34470 31799 29031 25978 22204 18674
  465.00 4.283E-05 94000 87742 81205 74340 67126 59421 51132 46696 42027 37100 34509 31847 29045 25986 22204 18683
  467.00 4.422E-05 94030 87788 81253 74401 67187 59475 51153 46698 41995 37042 34441 31773 28969 25893 22126 18611
  469.00 4.317E-05 94116 87978 81561 74820 67686 60065 51818 47394 42738 37781 35186 32523 29697 26593 22757 19161
  471.00 4.165E-05 94190 88163 81825 75198 68163 60648 52485 48115 43505 38607 36038 33373 30540 27443 23539 19861
  473.00 4.454E-05 94118 88011 81590 74854 67714 60126 51886 47463 42793 37854 35272 32577 29771 26673 22856 19288
  475.00 4.532E-05 94197 88129 81774 75110 68049 60481 52273 47860 43204 38239 35658 32966 30119 27030 23191 19629
  477.00 4.559E-05 94253 88243 81970 75345 68304 60781 52599 48190 43518 38539 35929 33231 30379 27243 23404 19818
  479.00 4.565E-05 94283 88324 82059 75444 68434 60920 52727 48324 43658 38686 36079 33384 30537 27426 23571 19974
  481.00 4.517E-05 94310 88333 82068 75493 68497 60992 52845 48461 43834 38942 36352 33695 30861 27762 23910 20272
  483.00 4.612E-05 94493 88725 82611 76127 69211 61709 53513 49068 44363 39332 36709 33977 31093 27949 24046 20405
  485.00 4.130E-05 95182 90024 84479 78499 71937 64722 56659 52228 47482 42397 39709 36901 33898 30557 26368 22390
  487.00 3.554E-05 95695 91080 86072 80585 74536 67783 60129 55881 51294 46286 43613 40743 37676 34159 29657 25245
  489.00 4.399E-05 94658 89020 83064 76745 69970 62628 54581 50216 45579 40646 38031 35326 32462 29279 25301 21546
  491.00 4.457E-05 94503 88737 82679 76262 69464 62127 54140 49809 45232 40363 37783 35113 32286 29123 25196 21456
  493.00 4.421E-05 94481 88690 82628 76250 69441 62135 54196 49898 45352 40489 37955 35286 32459 29337 25379 21633
  495.00 4.643E-05 94529 88800 82770 76395 69610 62309 54297 49968 45359 40448 37842 35150 32285 29119 25178 21490
  497.00 4.705E-05 94474 88672 82614 76196 69373 62040 54028 49713 45122 40234 37662 34984 32157 29033 25101 21403
  499.00 4.390E-05 94510 88793 82779 76446 69704 62483 54624 50364 45854 41048 38519 35877 33052 29909 25923 22121
  501.00 4.248E-05 94539 88842 82863 76577 69892 62735 54920 50706 46257 41502 38983 36347 33545 30414 26412 22535
  503.00 4.514E-05 94528 88813 82831 76495 69805 62583 54719 50487 45990 41183 38658 35999 33186 30040 26074 22264
  505.00 4.562E-05 94608 88952 83034 76765 70079 62889 54998 50723 46208 41363 38799 36146 33297 30140 26173 22359
  507.00 4.781E-05 94625 88977 83058 76762 70069 62832 54905 50596 46036 41142 38569 35892 33027 29868 25915 22129
  509.00 4.644E-05 94574 88910 82946 76658 69961 62748 54866 50603 46059 41236 38695 36047 33226 30082 26120 22308
  511.00 4.755E-05 94616 88959 83007 76719 70011 62776 54869 50578 46036 41178 38612 35962 33123 29989 26015 22229
  513.00 4.648E-05 94621 88985 83068 76786 70116 62930 55077 50818 46321 41523 38985 36338 33520 30400 26398 22547
  515.00 4.526E-05 94653 89063 83186 76977 70349 63235 55435 51215 46752 41980 39483 36832 34026 30888 26889 23023
  517.00 4.256E-05 94643 89051 83177 76997 70465 63463 55851 51762 47462 42904 40484 37970 35268 32190 28219 24295
  519.00 4.277E-05 94716 89175 83400 77297 70844 63923 56395 52350 48071 43512 41104 38578 35866 32803 28805 24830
  521.00 4.623E-05 94744 89249 83474 77352 70820 63746 56003 51806 47350 42570 40061 37422 34610 31451 27450 23599
  523.00 4.689E-05 94754 89251 83472 77351 70825 63788 56067 51887 47430 42696 40179 37556 34762 31627 27618 23736
  525.00 4.830E-05 94783 89296 83540 77433 70911 63872 56149 51967 47495 42733 40207 37557 34741 31573 27536 23665
  527.00 4.326E-05 94799 89367 83680 77670 71290 64424 56935 52890 48613 44036 41609 39066 36315 33195 29126 25127
  529.00 4.830E-05 94845 89441 83747 77723 71263 64306 56646 52464 48033 43292 40766 38137 35321 32153 28116 24203
  531.00 4.981E-05 94901 89540 83899 77916 71492 64545 56856 52660 48203 43405 40855 38185 35334 32142 28107 24212
  533.00 4.571E-05 94881 89521 83877 77926 71560 64690 57165 53096 48786 44148 41698 39138 36360 33231 29184 25202
  535.00 4.906E-05 94945 89625 84020 78068 71708 64798 57175 53017 48614 43865 41358 38708 35895 32715 28679 24766
  537.00 4.920E-05 94980 89715 84146 78232 71890 65000 57378 53232 48801 44045 41524 38862 36037 32866 28821 24898
  539.00 4.893E-05 94972 89679 84100 78193 71837 64970 57388 53239 48845 44124 41610 38994 36174 33006 28960 25015
  541.00 4.744E-05 94983 89734 84212 78352 72070 65282 57778 53710 49368 44709 42243 39629 36847 33685 29616 25632
  543.00 4.937E-05 94997 89751 84201 78307 71987 65141 57565 53433 49038 44298 41807 39174 36338 33178 29107 25157
  545.00 5.074E-05 95053 89870 84371 78518 72231 65372 57785 53626 49192 44423 41880 39220 36382 33189 29149 25266
  547.00 4.988E-05 95048 89836 84342 78488 72213 65397 57859 53729 49338 44627 42121 39495 36688 33520 29451 25501
  549.00 4.970E-05 95030 89819 84326 78471 72213 65412 57907 53843 49477 44809 42334 39718 36922 33763 29698 25714
  551.00 5.023E-05 95043 89827 84312 78459 72188 65379 57874 53793 49433 44754 42285 39677 36870 33725 29664 25702
  553.00 5.056E-05 95095 89953 84513 78718 72508 65744 58267 54173 49822 45115 42623 39992 37184 34019 29925 25949
  555.00 5.121E-05 95138 90021 84612 78832 72642 65905 58426 54325 49951 45265 42765 40129 37297 34114 30053 26069
  557.00 5.025E-05 95164 90090 84716 79005 72856 66149 58726 54647 50308 45612 43124 40498 37692 34507 30428 26428
  559.00 4.973E-05 95154 90066 84677 78946 72793 66117 58737 54695 50392 45767 43294 40700 37905 34748 30666 26644
  561.00 5.130E-05 95205 90175 84854 79162 73021 66335 58908 54834 50468 45770 43255 40624 37797 34600 30526 26550
  563.00 5.159E-05 95173 90114 84745 79027 72882 66195 58771 54720 50378 45726 43245 40628 37817 34658 30568 26575
  565.00 5.176E-05 95189 90147 84795 79096 72991 66306 58926 54888 50580 45923 43451 40842 38041 34872 30777 26777
  567.00 5.073E-05 95230 90183 84881 79204 73132 66509 59176 55174 50897 46284 43820 41238 38439 35285 31165 27144
  569.00 5.177E-05 95248 90265 84972 79351 73305 66699 59359 55341 51053 46398 43925 41317 38517 35329 31234 27217
  571.00 5.133E-05 95266 90279 85019 79408 73368 66764 59439 55426 51120 46484 44009 41399 38574 35398 31288 27236
  573.00 5.446E-05 95281 90342 85108 79490 73448 66820 59420 55343 50973 46236 43720 41058 38212 34998 30922 26956
  575.00 5.279E-05 95302 90377 85130 79542 73518 66944 59614 55598 51279 46638 44156 41542 38719 35537 31445 27429
  577.00 5.355E-05 95313 90401 85191 79627 73613 67021 59683 55668 51335 46667 44164 41550 38730 35537 31447 27451
  579.00 5.264E-05 95289 90350 85106 79521 73518 66945 59650 55661 51406 46790 44339 41755 38963 35790 31687 27660
  581.00 5.372E-05 95365 90469 85294 79747 73771 67219 59922 55901 51601 46947 44453 41847 39017 35834 31739 27736
  583.00 5.462E-05 95386 90553 85408 79897 73929 67393 60088 56060 51721 47052 44544 41908 39070 35884 31765 27774
  585.00 5.375E-05 95423 90586 85451 79963 74028 67516 60242 56242 51944 47293 44800 42177 39349 36167 32037 28019
  587.00 5.408E-05 95414 90607 85503 80030 74112 67604 60337 56342 52053 47393 44915 42289 39479 36280 32175 28162
  589.00 5.140E-05 95389 90545 85409 79922 74027 67568 60389 56479 52296 47782 45370 42840 40097 36965 32899 28852
  591.00 5.401E-05 95445 90650 85558 80096 74208 67728 60507 56527 52250 47621 45140 42529 39733 36549 32420 28402
  593.00 5.409E-05 95489 90719 85654 80218 74339 67905 60695 56720 52450 47828 45350 42744 39933 36754 32631 28582
  595.00 5.442E-05 95498 90739 85685 80265 74403 67971 60768 56799 52517 47905 45443 42834 40004 36825 32709 28666
  597.00 5.471E-05 95522 90806 85798 80406 74575 68159 60958 56991 52714 48090 45604 42990 40175 36977 32864 28843
  599.00 5.437E-05 95531 90804 85801 80430 74600 68199 61026 57072 52823 48225 45761 43167 40353 37171 33051 29005
  601.00 5.369E-05 95549 90855 85863 80536 74744 68374 61259 57348 53120 48538 46098 43509 40697 37512 33377 29298
  603.00 5.419E-05 95571 90921 85957 80642 74885 68537 61432 57501 53276 48681 46208 43606 40801 37608 33475 29415
  605.00 5.531E-05 95570 90924 85970 80654 74869 68505 61381 57440 53191 48581 46122 43518 40698 37516 33394 29344
  607.00 5.528E-05 95586 90955 86017 80716 74964 68614 61487 57562 53310 48698 46237 43632 40810 37609 33484 29432
  609.00 5.421E-05 95573 90906 85925 80612 74839 68511 61428 57536 53348 48829 46394 43830 41063 37890 33776 29681
  611.00 5.394E-05 95606 90953 86022 80738 75009 68706 61680 57786 53615 49092 46681 44123 41342 38172 34038 29941
  613.00 5.225E-05 95636 91024 86105 80861 75158 68919 61933 58086 53971 49493 47120 44574 41837 38679 34545 30411
  615.00 5.288E-05 95688 91112 86252 81033 75397 69175 62216 58396 54274 49792 47409 44856 42095 38937 34777 30616
  617.00 5.199E-05 95653 91075 86228 81035 75399 69225 62320 58530 54434 50010 47625 45105 42354 39200 35045 30891
  619.00 5.472E-05 95651 91082 86221 80976 75311 69061 62043 58169 54002 49488 47058 44499 41721 38542 34412 30336
  621.00 5.497E-05 95689 91159 86320 81117 75459 69220 62216 58341 54175 49645 47208 44643 41859 38676 34546 30453
  623.00 5.388E-05 95676 91128 86284 81088 75445 69228 62287 58445 54306 49833 47439 44896 42131 38976 34818 30698
  625.00 5.223E-05 95730 91231 86445 81294 75723 69596 62742 58970 54892 50469 48095 45568 42811 39652 35459 31266
  627.00 5.501E-05 95692 91165 86348 81185 75550 69351 62407 58553 54426 49918 47519 44955 42192 39029 34885 30776
  629.00 5.528E-05 95731 91226 86433 81277 75687 69501 62554 58701 54559 50054 47630 45080 42294 39128 34986 30879
  631.00 5.389E-05 95769 91297 86547 81425 75858 69735 62850 59028 54927 50473 48079 45537 42791 39618 35480 31323
  633.00 5.439E-05 95790 91322 86578 81467 75915 69774 62898 59092 54992 50542 48152 45615 42857 39695 35558 31421
  635.00 5.447E-05 95796 91353 86616 81513 75987 69873 63007 59207 55131 50688 48320 45805 43051 39894 35763 31632
  637.00 5.443E-05 95811 91365 86625 81518 75969 69870 63017 59232 55172 50762 48392 45875 43138 39996 35863 31729
  639.00 5.518E-05 95850 91446 86734 81660 76151 70062 63193 59387 55292 50834 48423 45886 43113 39960 35810 31678
  641.00 5.387E-05 95879 91517 86857 81827 76369 70317 63523 59755 55690 51272 48895 46371 43624 40449 36310 32133
  643.00 5.469E-05 95886 91516 86835 81807 76339 70287 63485 59700 55623 51179 48802 46261 43500 40336 36186 32035
  645.00 5.433E-05 95895 91552 86913 81925 76477 70458 63685 59930 55881 51482 49107 46586 43843 40696 36536 32376
  647.00 5.429E-05 95911 91601 86977 81986 76570 70565 63805 60066 56014 51612 49254 46731 43986 40818 36673 32511
  649.00 5.378E-05 95965 91670 87096 82150 76757 70770 64020 60283 56248 51841 49461 46951 44199 41019 36854 32652
  651.00 5.480E-05 96040 91807 87263 82354 76989 71004 64252 60493 56423 51989 49599 47044 44288 41095 36916 32737
  653.00 5.425E-05 96184 92111 87687 82894 77604 71687 64977 61235 57161 52737 50341 47797 45014 41806 37567 33327
  655.00 5.019E-05 96772 93246 89380 85097 80295 74796 68420 64794 60829 56406 53995 51385 48496 45129 40606 36043
  657.00 4.186E-05 97372 94505 91352 87817 83827 79216 73794 70688 67176 63211 60941 58457 55614 52150 47324 42260
  659.00 5.304E-05 96399 92515 88292 83673 78563 72794 66176 62462 58428 53997 51584 49020 46210 42949 38650 34314
  661.00 5.526E-05 96127 91983 87532 82700 77398 71480 64767 61021 56985 52570 50181 47647 44879 41694 37495 33297
  663.00 5.526E-05 96037 91820 87315 82429 77090 71173 64495 60785 56768 52407 50054 47539 44806 41676 37514 33351
  665.00 5.544E-05 96050 91829 87320 82431 77110 71194 64520 60823 56818 52453 50090 47583 44859 41703 37554 33387
  667.00 5.502E-05 96038 91821 87314 82443 77117 71229 64577 60887 56888 52545 50218 47710 45002 41858 37714 33533
  669.00 5.600E-05 96054 91839 87339 82464 77161 71268 64589 60893 56893 52536 50179 47679 44946 41821 37679 33536
  671.00 5.514E-05 96028 91803 87287 82408 77095 71219 64599 60936 56964 52648 50326 47860 45140 42020 37885 33714
  673.00 5.585E-05 96007 91817 87341 82489 77207 71334 64709 61039 57064 52731 50403 47914 45192 42077 37941 33805
  675.00 5.541E-05 96048 91879 87403 82584 77315 71467 64862 61216 57264 52951 50623 48150 45443 42321 38188 34001
  677.00 5.578E-05 96020 91843 87379 82556 77268 71423 64826 61169 57207 52886 50556 48082 45375 42273 38150 33991
  679.00 5.558E-05 96024 91850 87388 82548 77294 71447 64879 61227 57287 53005 50684 48219 45538 42425 38305 34149
  681.00 5.548E-05 96053 91889 87455 82660 77415 71611 65050 61410 57480 53208 50883 48432 45728 42628 38500 34337
  683.00 5.583E-05 96042 91922 87498 82715 77485 71700 65144 61508 57568 53269 50958 48486 45800 42683 38546 34390
  685.00 5.487E-05 96063 91945 87516 82741 77529 71751 65245 61637 57755 53508 51212 48770 46091 42993 38855 34682
  687.00 5.571E-05 96087 91976 87561 82804 77580 71800 65267 61641 57710 53437 51122 48663 45970 42865 38754 34572
  689.00 5.589E-05 96099 91984 87583 82841 77635 71873 65361 61728 57828 53552 51261 48792 46108 43013 38898 34747
  691.00 5.561E-05 96098 91980 87592 82845 77666 71912 65420 61823 57921 53677 51376 48930 46251 43158 39058 34886
  693.00 5.572E-05 96106 92014 87635 82897 77710 71967 65470 61881 57986 53733 51436 48995 46321 43234 39124 34943
  695.00 5.577E-05 96109 92039 87664 82930 77766 72028 65555 61951 58042 53792 51497 49041 46369 43249 39125 34947
  697.00 5.575E-05 96126 92054 87695 82996 77830 72126 65650 62063 58188 53937 51659 49220 46547 43444 39336 35157
  699.00 5.590E-05 96118 92075 87710 83023 77871 72165 65689 62093 58211 53971 51664 49231 46547 43453 39320 35152
  701.00 5.425E-05 96184 92129 87779 83115 78009 72350 65972 62452 58636 54488 52240 49825 47189 44111 40000 35760
  703.00 5.534E-05 96187 92158 87821 83159 78045 72371 65956 62378 58529 54337 52060 49639 46982 43892 39772 35580
  705.00 5.571E-05 96159 92138 87830 83163 78065 72393 65985 62412 58571 54353 52073 49650 46993 43906 39777 35613
  707.00 5.547E-05 96178 92158 87849 83180 78078 72418 66018 62466 58626 54426 52172 49739 47089 44006 39895 35713
  709.00 5.533E-05 96187 92174 87873 83210 78131 72492 66112 62570 58757 54564 52322 49901 47262 44171 40069 35876
  711.00 5.519E-05 96267 92336 88114 83530 78511 72930 66588 63055 59232 55028 52763 50353 47672 44573 40442 36202
  713.00 5.500E-05 96236 92273 88018 83418 78364 72764 66418 62891 59073 54909 52655 50236 47582 44491 40364 36145
  715.00 5.491E-05 96248 92278 88035 83446 78419 72828 66509 62994 59188 55036 52795 50373 47733 44655 40539 36314
  717.00 5.480E-05 96259 92318 88084 83522 78504 72938 66642 63157 59361 55237 52993 50602 47956 44891 40785 36569
  719.00 5.374E-05 96260 92315 88072 83495 78489 72944 66710 63249 59509 55415 53201 50837 48232 45162 41049 36788
  721.00 5.497E-05 96253 92323 88121 83555 78570 73003 66709 63216 59414 55267 53029 50628 47972 44897 40786 36565
  723.00 5.486E-05 96281 92344 88133 83595 78600 73077 66825 63343 59588 55468 53245 50857 48232 45170 41068 36857
  725.00 5.530E-05 96311 92423 88246 83707 78752 73219 66944 63454 59675 55533 53291 50886 48246 45172 41067 36854
  727.00 5.541E-05 96300 92402 88215 83667 78704 73164 66901 63400 59628 55477 53239 50839 48204 45136 41040 36835
  729.00 5.397E-05 96313 92403 88234 83732 78785 73319 67130 63702 59978 55920 53715 51362 48749 45692 41579 37336
  731.00 5.503E-05 96329 92459 88297 83772 78830 73342 67091 63620 59858 55751 53516 51118 48483 45430 41305 37089
  733.00 5.512E-05 96353 92489 88335 83835 78901 73422 67181 63716 59960 55842 53610 51234 48603 45537 41419 37210
  735.00 5.542E-05 96319 92458 88289 83778 78852 73349 67106 63641 59870 55756 53537 51137 48520 45453 41357 37153
  737.00 5.550E-05 96342 92486 88342 83856 78937 73441 67225 63766 60018 55910 53694 51315 48685 45640 41550 37351
  739.00 5.421E-05 96384 92548 88415 83951 79081 73640 67497 64084 60395 56355 54160 51799 49198 46172 42077 37853
  741.00 5.307E-05 96439 92651 88600 84210 79405 74053 67986 64613 60957 56963 54777 52440 49840 46787 42679 38402
  743.00 5.435E-05 96412 92604 88519 84103 79246 73855 67728 64324 60626 56578 54370 52015 49420 46385 42282 38050
  745.00 5.468E-05 96434 92630 88570 84144 79279 73884 67758 64338 60644 56584 54371 52012 49415 46361 42264 38058
  747.00 5.517E-05 96429 92659 88599 84194 79355 73935 67790 64365 60649 56571 54359 51985 49375 46311 42215 37992
  749.00 5.484E-05 96426 92651 88603 84190 79358 73979 67852 64442 60740 56674 54468 52115 49508 46462 42378 38147
  751.00 5.505E-05 96440 92679 88610 84214 79382 73987 67847 64432 60727 56676 54460 52098 49500 46449 42380 38165
  753.00 5.525E-05 96434 92688 88633 84253 79439 74045 67928 64525 60814 56742 54552 52181 49575 46534 42443 38262
  755.00 5.556E-05 96436 92675 88625 84233 79410 74028 67909 64489 60781 56713 54500 52142 49550 46508 42441 38265
  757.00 5.519E-05 96449 92698 88675 84309 79507 74144 68056 64649 60953 56912 54702 52346 49755 46711 42635 38449
  759.00 5.520E-05 96449 92699 88696 84330 79529 74167 68062 64674 60978 56920 54728 52373 49783 46739 42681 38496
  761.00 5.500E-05 96455 92727 88709 84364 79582 74236 68164 64782 61109 57091 54909 52564 49982 46945 42891 38709
  763.00 5.534E-05 96458 92754 88760 84424 79653 74322 68251 64854 61167 57120 54933 52566 49982 46946 42862 38688
  765.00 5.525E-05 96507 92814 88833 84507 79765 74443 68398 65032 61357 57321 55131 52778 50190 47149 43077 38896
  767.00 5.391E-05 96531 92858 88907 84623 79911 74643 68670 65331 61695 57726 55556 53237 50659 47653 43573 39362
  769.00 5.506E-05 96531 92862 88921 84635 79895 74628 68616 65256 61587 57592 55412 53069 50490 47457 43407 39212
  771.00 5.465E-05 96523 92845 88911 84611 79909 74639 68637 65288 61629 57621 55444 53102 50522 47484 43403 39213
  773.00 5.495E-05 96524 92830 88881 84568 79836 74559 68553 65205 61547 57561 55378 53048 50482 47461 43403 39217
  775.00 5.435E-05 96523 92879 88960 84692 80000 74775 68813 65483 61877 57902 55731 53413 50837 47820 43772 39558
  777.00 5.458E-05 96610 93038 89172 84976 80341 75137 69219 65885 62276 58281 56119 53793 51209 48186 44119 39905
  779.00 5.541E-05 96535 92907 88991 84714 80022 74770 68760 65403 61758 57751 55568 53221 50641 47609 43566 39397
  781.00 5.505E-05 96549 92916 89010 84759 80073 74841 68883 65540 61926 57947 55804 53479 50917 47920 43869 39709
  783.00 5.464E-05 96578 92972 89092 84865 80216 75018 69089 65776 62171 58199 56040 53715 51153 48152 44089 39916
  785.00 5.442E-05 96601 93017 89140 84914 80283 75083 69184 65877 62293 58343 56193 53877 51323 48328 44285 40096
  787.00 5.519E-05 96575 92988 89110 84889 80250 75032 69089 65773 62149 58163 56007 53669 51114 48107 44048 39862
  789.00 5.515E-05 96609 93019 89157 84932 80290 75068 69121 65802 62176 58187 56029 53690 51115 48105 44044 39837
  791.00 5.461E-05 96612 93023 89159 84948 80315 75133 69200 65904 62296 58341 56199 53873 51309 48306 44223 39974
  793.00 5.376E-05 96652 93099 89267 85100 80506 75372 69513 66239 62667 58761 56622 54315 51767 48772 44699 40458
  795.00 5.404E-05 96669 93098 89249 85067 80459 75296 69412 66136 62546 58623 56477 54182 51610 48612 44541 40285
  797.00 5.501E-05 96637 93056 89202 85003 80367 75186 69278 65970 62370 58408 56262 53954 51391 48391 44337 40138
  799.00 5.507E-05 96659 93118 89305 85128 80534 75359 69457 66152 62539 58580 56419 54095 51516 48520 44453 40240
  801.00 5.452E-05 96643 93103 89270 85106 80521 75367 69497 66214 62638 58694 56548 54255 51706 48716 44663 40462
  803.00 5.448E-05 96641 93098 89280 85132 80543 75422 69585 66318 62757 58829 56700 54405 51872 48880 44842 40639
  805.00 5.430E-05 96667 93149 89337 85193 80608 75488 69650 66390 62818 58913 56777 54494 51952 48969 44917 40718
  807.00 5.480E-05 96679 93139 89343 85182 80602 75456 69599 66314 62737 58814 56661 54361 51825 48832 44781 40566
  809.00 5.404E-05 96669 93153 89360 85215 80662 75555 69726 66469 62935 59030 56902 54626 52091 49093 45041 40803
  811.00 5.479E-05 96696 93174 89359 85216 80653 75506 69648 66362 62785 58861 56726 54408 51871 48878 44826 40591
  813.00 5.503E-05 96693 93167 89369 85244 80665 75541 69671 66382 62802 58859 56733 54425 51863 48882 44830 40614
  815.00 5.479E-05 96696 93192 89396 85253 80690 75579 69721 66454 62895 58971 56835 54554 51999 49024 44990 40774
  817.00 5.478E-05 96678 93191 89412 85305 80759 75648 69825 66557 62997 59091 56955 54655 52118 49142 45089 40891
  819.00 5.308E-05 96760 93331 89619 85569 81104 76093 70384 67182 63696 59853 57762 55501 52995 50019 45987 41748
  821.00 5.339E-05 96760 93313 89567 85503 81026 76007 70275 67072 63589 59749 57670 55404 52894 49934 45889 41656
  823.00 5.344E-05 96781 93357 89633 85591 81138 76123 70397 67197 63698 59843 57747 55464 52957 49981 45939 41729
  825.00 5.386E-05 96788 93335 89621 85574 81099 76086 70368 67156 63646 59785 57687 55403 52878 49926 45897 41682
  827.00 5.469E-05 96764 93308 89559 85482 80984 75919 70141 66904 63375 59481 57360 55074 52551 49589 45566 41397
  829.00 5.454E-05 96773 93326 89604 85534 81041 75999 70224 66997 63476 59589 57481 55207 52677 49707 45691 41511
  831.00 5.360E-05 96772 93321 89590 85541 81063 76045 70336 67146 63657 59832 57743 55504 53004 50056 46045 41828
  833.00 5.328E-05 96828 93431 89752 85736 81288 76314 70608 67417 63945 60098 57995 55743 53228 50282 46265 42042
  835.00 5.383E-05 96786 93349 89634 85603 81126 76129 70407 67212 63738 59911 57830 55582 53074 50139 46127 41928
  837.00 5.422E-05 96791 93360 89653 85596 81132 76116 70398 67189 63703 59849 57765 55496 52988 50037 46016 41830
  839.00 5.348E-05 96803 93362 89660 85621 81171 76178 70475 67277 63818 59985 57910 55647 53160 50206 46204 42016
  841.00 5.412E-05 96822 93404 89727 85698 81282 76293 70602 67424 63932 60107 58001 55746 53234 50296 46268 42092
  843.00 5.319E-05 96823 93439 89791 85806 81425 76499 70878 67719 64279 60481 58394 56157 53657 50705 46663 42452
  845.00 5.314E-05 96914 93621 90026 86131 81784 76910 71321 68160 64716 60915 58826 56568 54065 51110 47083 42868
  847.00 5.302E-05 96888 93531 89909 85968 81611 76707 71105 67974 64542 60770 58695 56450 53980 51037 47020 42814
  849.00 5.219E-05 96953 93696 90151 86300 82008 77199 71680 68576 65185 61429 59379 57157 54685 51734 47691 43399
  851.00 4.973E-05 96984 93746 90247 86447 82244 77559 72190 69174 65896 62256 60265 58094 55640 52725 48663 44319
  853.00 5.144E-05 96967 93701 90183 86334 82076 77294 71831 68779 65455 61781 59778 57601 55171 52255 48231 43915
  855.00 4.274E-05 97263 94338 91203 87810 84090 79949 75246 72602 69677 66425 64577 62541 60178 57253 52948 48105
  857.00 5.366E-05 96925 93645 90048 86135 81774 76854 71226 68058 64592 60790 58722 56485 53988 51062 47074 42900
  859.00 5.230E-05 96998 93786 90306 86482 82237 77457 71950 68853 65468 61702 59656 57419 54933 52008 47973 43748
  861.00 5.235E-05 97020 93792 90315 86495 82273 77498 71996 68902 65521 61777 59713 57479 54995 52053 48042 43820
  863.00 5.371E-05 96928 93632 90039 86111 81754 76857 71216 68051 64606 60808 58741 56507 54012 51089 47123 42990
  865.00 5.226E-05 97015 93800 90299 86471 82204 77421 71929 68829 65480 61768 59740 57558 55109 52201 48201 43972
  867.00 4.362E-05 97318 94452 91334 87964 84227 80055 75287 72627 69670 66369 64535 62471 60110 57199 53003 48258
  869.00 5.187E-05 96992 93754 90226 86370 82109 77309 71814 68749 65394 61693 59668 57471 55041 52150 48178 43995
  871.00 5.328E-05 96903 93581 89977 86036 81700 76821 71246 68131 64733 60980 58934 56738 54279 51389 47447 43337
  873.00 5.302E-05 97020 93795 90287 86439 82158 77329 71784 68653 65258 61486 59430 57205 54753 51830 47869 43719
  875.00 5.048E-05 97266 94315 91105 87559 83597 79081 73831 70860 67571 63887 61846 59628 57132 54160 50059 45741
  877.00 5.310E-05 97100 93936 90508 86723 82505 77702 72166 69040 65593 61808 59718 57476 54991 52053 48060 43917
  879.00 5.343E-05 96893 93580 89968 86057 81714 76848 71290 68164 64776 61033 58993 56785 54351 51469 47539 43440
  881.00 5.256E-05 96861 93512 89897 85978 81659 76826 71328 68246 64916 61225 59228 57059 54642 51788 47888 43779
  883.00 5.304E-05 96983 93722 90177 86312 82014 77187 71663 68552 65158 61425 59370 57164 54732 51829 47907 43797
  885.00 5.211E-05 97217 94205 90904 87239 83132 78449 73019 69929 66532 62752 60679 58453 55939 53003 48993 44809
  887.00 4.952E-05 97415 94588 91519 88106 84269 79887 74758 71830 68599 64964 62944 60743 58239 55250 51151 46809
  889.00 5.319E-05 97030 93815 90337 86501 82252 77439 71912 68810 65426 61685 59635 57436 54973 52077 48148 44050
  891.00 5.374E-05 96948 93655 90100 86230 81932 77112 71585 68478 65091 61351 59304 57108 54652 51786 47879 43804
  893.00 5.278E-05 96893 93596 90034 86150 81868 77094 71637 68587 65252 61576 59568 57408 55002 52141 48238 44164
  895.00 5.333E-05 96887 93550 89949 86030 81718 76899 71404 68329 64973 61260 59235 57060 54622 51772 47872 43803
  897.00 5.333E-05 96925 93625 90062 86162 81886 77067 71573 68498 65142 61448 59422 57229 54810 51941 48041 43971
  899.00 5.324E-05 97051 93839 90346 86533 82269 77461 71957 68858 65477 61739 59711 57513 55071 52198 48272 44196
  901.00 4.860E-05 97490 94774 91770 88436 84671 80350 75309 72428 69239 65658 63683 61502 59033 56091 51996 47654
  903.00 5.139E-05 97354 94474 91302 87780 83791 79218 73886 70850 67503 63767 61705 59486 56996 54038 50010 45807
  905.00 5.369E-05 97020 93816 90333 86515 82269 77482 71969 68877 65487 61743 59713 57497 55057 52188 48296 44254
  907.00 5.245E-05 97007 93804 90334 86559 82364 77674 72278 69247 65949 62288 60267 58112 55691 52831 48942 44862
  909.00 5.106E-05 97043 93870 90443 86722 82589 77967 72679 69702 66432 62828 60850 58696 56306 53447 49530 45417
  911.00 5.222E-05 96936 93661 90138 86308 82095 77384 72022 69016 65722 62103 60130 57985 55611 52777 48908 44830
  913.00 5.352E-05 96880 93591 90060 86211 81969 77205 71768 68703 65359 61659 59641 57474 55045 52205 48337 44301
  915.00 5.348E-05 96877 93586 90034 86163 81900 77132 71672 68624 65295 61612 59592 57423 55030 52188 48336 44316
  917.00 5.330E-05 96942 93677 90150 86304 82064 77298 71876 68818 65497 61820 59812 57636 55235 52402 48537 44503
  919.00 5.353E-05 97030 93835 90379 86568 82365 77620 72165 69101 65739 62021 59985 57799 55371 52513 48627 44611
  921.00 5.157E-05 97227 94221 90925 87279 83207 78592 73260 70235 66919 63254 61237 59065 56641 53772 49835 45724
  923.00 4.744E-05 97829 95447 92812 89819 86404 82420 77656 74895 71796 68255 66252 64060 61551 58537 54363 49958
  925.00 5.088E-05 97327 94418 91215 87677 83687 79147 73880 70892 67590 63935 61930 59748 57331 54442 50491 46344
  927.00 5.216E-05 97124 94038 90663 86963 82860 78221 72891 69881 66584 62941 60947 58781 56365 53508 49617 45552
  929.00 5.313E-05 96989 93751 90269 86467 82251 77527 72125 69095 65782 62112 60098 57933 55524 52701 48842 44833
  931.00 5.338E-05 96909 93668 90165 86362 82147 77426 72012 68977 65661 62008 60004 57831 55433 52604 48764 44773
  933.00 5.307E-05 96929 93688 90183 86395 82193 77501 72112 69097 65800 62144 60147 57999 55606 52779 48935 44941
  935.00 5.312E-05 96931 93694 90211 86408 82229 77541 72157 69145 65832 62180 60166 58020 55610 52786 48946 44955
  937.00 5.310E-05 96874 93635 90132 86328 82128 77420 72034 69002 65706 62053 60038 57891 55480 52655 48814 44821
  939.00 5.303E-05 96926 93721 90232 86460 82274 77598 72223 69206 65925 62267 60287 58137 55742 52913 49085 45088
  941.00 5.039E-05 97122 94027 90693 87041 83032 78508 73348 70431 67255 63723 61778 59675 57313 54495 50645 46557
  943.00 5.259E-05 96958 93782 90340 86594 82468 77828 72523 69538 66267 62654 60658 58528 56132 53318 49477 45465
  945.00 5.202E-05 96963 93752 90331 86582 82449 77835 72549 69589 66340 62764 60804 58670 56305 53499 49673 45656
  947.00 5.292E-05 96995 93802 90344 86602 82445 77778 72430 69426 66138 62491 60506 58352 55952 53137 49320 45333
  949.00 5.311E-05 97063 93899 90473 86726 82564 77895 72529 69497 66183 62531 60516 58351 55959 53116 49294 45302
  951.00 5.248E-05 97123 94036 90663 86966 82851 78220 72885 69874 66597 62938 60937 58784 56383 53563 49714 45713
  953.00 5.146E-05 97396 94559 91430 87932 83988 79460 74174 71162 67859 64166 62145 59949 57520 54644 50719 46658
  955.00 4.662E-05 98005 95796 93308 90498 87237 83419 78829 76126 73080 69584 67610 65423 62934 59931 55749 51330
  957.00 5.134E-05 97351 94449 91254 87709 83736 79198 73899 70919 67628 63966 61959 59797 57382 54519 50623 46552
  959.00 5.257E-05 97128 94046 90698 87008 82918 78296 72969 69964 66673 63040 61042 58874 56477 53643 49819 45825
  961.00 5.204E-05 97098 93985 90623 86933 82840 78267 72982 70023 66776 63163 61203 59051 56687 53882 50058 46061
  963.00 5.147E-05 97125 94035 90694 87060 83019 78473 73266 70332 67107 63532 61570 59433 57062 54265 50437 46435
  965.00 5.183E-05 97048 93903 90507 86822 82751 78159 72911 69959 66718 63149 61181 59039 56666 53868 50048 46054
  967.00 5.154E-05 97070 93966 90609 86942 82887 78328 73108 70179 66958 63388 61428 59313 56946 54152 50330 46314
  969.00 5.209E-05 97082 93972 90612 86946 82895 78345 73104 70148 66903 63313 61355 59205 56844 54041 50221 46228
  971.00 5.234E-05 97000 93848 90447 86721 82633 78028 72736 69775 66527 62916 60948 58808 56439 53649 49847 45892
  973.00 5.239E-05 96984 93835 90437 86734 82649 78049 72781 69803 66559 62951 60966 58847 56461 53674 49876 45906
  975.00 5.168E-05 97020 93905 90557 86881 82837 78289 73065 70124 66912 63351 61397 59269 56908 54122 50329 46343
  977.00 5.198E-05 97018 93882 90496 86803 82743 78165 72932 69969 66737 63159 61197 59080 56714 53944 50135 46172
  979.00 5.189E-05 97013 93872 90480 86780 82694 78127 72866 69917 66699 63114 61168 59048 56697 53922 50125 46136
  981.00 5.212E-05 97026 93918 90560 86896 82847 78300 73062 70107 66865 63277 61301 59171 56811 54010 50230 46278
  983.00 5.199E-05 97038 93922 90556 86901 82843 78304 73072 70129 66897 63320 61358 59242 56876 54107 50317 46355
  985.00 5.192E-05 97072 93971 90639 86999 82974 78448 73228 70300 67065 63502 61537 59399 57049 54257 50462 46514
  987.00 5.159E-05 97054 93972 90657 87032 83020 78523 73328 70401 67184 63617 61659 59546 57182 54410 50611 46637
  989.00 5.145E-05 97085 94033 90729 87114 83110 78620 73450 70535 67328 63771 61808 59689 57337 54538 50748 46783
  991.00 5.141E-05 97102 94048 90741 87143 83136 78642 73488 70570 67360 63801 61856 59735 57382 54600 50827 46859
  993.00 5.190E-05 97071 94008 90694 87071 83044 78536 73333 70385 67168 63584 61618 59480 57129 54335 50540 46609
  995.00 5.188E-05 97109 94044 90748 87124 83115 78604 73400 70451 67232 63647 61681 59541 57170 54395 50598 46665
  997.00 5.183E-05 97145 94096 90797 87170 83176 78661 73452 70500 67278 63689 61721 59599 57245 54447 50666 46730
  999.00 5.166E-05 97174 94154 90863 87263 83275 78765 73558 70616 67383 63802 61847 59717 57356 54568 50774 46845
 1002.50 5.032E-05 97496 94773 91753 88394 84618 80266 75179 72277 69038 65441 63454 61288 58863 56021 52126 48092
 1007.50 4.906E-05 97615 95006 92132 88912 85263 81084 76131 73298 70159 66633 64656 62515 60130 57277 53363 49266
 1012.50 5.109E-05 97240 94265 91035 87512 83578 79135 73987 71090 67880 64318 62361 60227 57859 55079 51282 47328
 1017.50 5.080E-05 97146 94134 90886 87323 83386 78957 73839 70945 67776 64252 62303 60197 57874 55098 51339 47402
 1022.50 5.106E-05 97101 94085 90834 87270 83314 78868 73756 70858 67665 64121 62182 60067 57736 54975 51195 47278
 1027.50 5.127E-05 97133 94129 90872 87322 83382 78935 73805 70899 67700 64151 62181 60074 57714 54944 51200 47279
 1032.50 5.068E-05 97119 94140 90923 87391 83465 79065 73974 71093 67916 64384 62431 60339 57991 55229 51480 47553
 1037.50 5.059E-05 97173 94189 90967 87448 83534 79146 74046 71180 68017 64479 62542 60447 58114 55347 51591 47677
 1042.50 5.072E-05 97181 94223 91009 87500 83616 79219 74132 71254 68080 64550 62599 60489 58162 55382 51636 47733
 1047.50 5.000E-05 97240 94320 91160 87700 83860 79520 74520 71660 68520 65020 63100 61000 58660 55900 52160 48240
 1052.50 5.028E-05 97235 94312 91150 87689 83850 79495 74463 71599 68457 64936 62987 60899 58552 55807 52049 48150
 1057.50 5.010E-05 97246 94331 91178 87725 83892 79561 74531 71697 68543 65030 63094 60998 58683 55928 52176 48263
 1062.50 4.987E-05 97233 94345 91197 87768 83938 79627 74614 71767 68618 65129 63184 61099 58773 56006 52276 48386
 1067.50 4.856E-05 97344 94543 91495 88159 84432 80210 75329 72529 69460 66001 64106 62047 59720 56981 53233 49300
 1072.50 4.921E-05 97318 94452 91364 87970 84211 79943 74985 72180 69071 65596 63686 61593 59277 56533 52794 48893
 1077.50 4.904E-05 97288 94454 91354 87969 84197 79935 75000 72186 69086 65620 63703 61644 59319 56586 52855 48960
 1082.50 4.845E-05 97358 94510 91434 88070 84334 80083 75170 72384 69309 65882 63983 61920 59628 56904 53189 49288
 1087.50 4.839E-05 97437 94668 91651 88303 84604 80368 75470 72680 69580 66129 64228 62162 59847 57119 53379 49473
 1092.50 4.581E-05 97992 95787 93320 90526 87317 83541 79022 76381 73390 69985 68064 65946 63567 60707 56778 52674
 1097.50 4.743E-05 97660 95109 92304 89163 85621 81531 76703 73919 70841 67384 65465 63357 61016 58254 54459 50517
 1102.50 4.888E-05 97422 94640 91612 88277 84554 80319 75389 72586 69476 65978 64055 61968 59636 56894 53171 49304
 1107.50 4.909E-05 97372 94561 91505 88144 84396 80159 75209 72398 69261 65777 63842 61764 59442 56692 52984 49134
 1112.50 4.876E-05 97354 94565 91530 88208 84495 80271 75369 72580 69483 65997 64069 61998 59660 56932 53220 49364
 1117.50 4.853E-05 97342 94560 91552 88213 84525 80321 75438 72656 69565 66083 64166 62085 59777 57037 53328 49495
 1122.50 4.871E-05 97352 94560 91542 88216 84500 80292 75385 72593 69493 66023 64094 62000 59680 56949 53254 49415
 1127.50 4.755E-05 97455 94742 91798 88559 84942 80820 76025 73291 70242 66835 64942 62881 60568 57855 54154 50284
 1132.50 4.768E-05 97462 94757 91799 88570 84941 80831 76028 73280 70239 66799 64912 62836 60529 57802 54090 50231
 1137.50 4.791E-05 97391 94657 91672 88416 84763 80609 75788 73012 69965 66500 64600 62534 60217 57483 53767 49948
 1142.50 4.728E-05 97441 94734 91794 88558 84962 80838 76058 73329 70283 66878 64975 62923 60618 57910 54209 50360
 1147.50 4.825E-05 97389 94653 91689 88435 84788 80622 75772 72995 69886 66404 64477 62383 60041 57306 53596 49782
 1152.50 4.809E-05 97401 94677 91724 88459 84799 80661 75816 73030 69952 66480 64546 62466 60137 57392 53691 49886
 1157.50 4.765E-05 97440 94732 91773 88541 84911 80777 75971 73200 70136 66695 64785 62707 60378 57650 53956 50136
 1162.50 4.693E-05 97507 94843 91967 88771 85212 81142 76390 73663 70637 67206 65289 63222 60899 58172 54464 50629
 1167.50 4.678E-05 97542 94934 92091 88927 85400 81381 76657 73942 70906 67486 65584 63510 61201 58465 54746 50898
 1172.50 4.768E-05 97483 94799 91883 88675 85067 80977 76154 73385 70302 66820 64891 62794 60466 57718 54006 50210
 1177.50 4.639E-05 97564 94999 92175 89071 85600 81612 76913 74219 71201 67795 65898 63807 61500 58741 55033 51175
 1182.50 4.650E-05 97548 94925 92065 88925 85398 81376 76667 73957 70946 67548 65656 63570 61269 58538 54860 51032
 1187.50 4.616E-05 97552 94974 92136 89016 85529 81542 76841 74155 71122 67721 65815 63735 61417 58687 54983 51148
 1192.50 4.736E-05 97466 94827 91934 88767 85220 81144 76351 73606 70524 67040 65097 62986 60642 57876 54181 50380
 1197.50 4.574E-05 97573 94972 92151 89025 85527 81526 76847 74158 71163 67796 65894 63839 61544 58833 55160 51355
 1202.50 4.647E-05 97547 94943 92102 88982 85475 81450 76738 74026 70992 67549 65634 63568 61222 58489 54810 51001
 1207.50 4.605E-05 97546 94962 92139 89034 85559 81564 76873 74180 71162 67731 65841 63757 61433 58697 55027 51227
 1212.50 4.632E-05 97539 94948 92142 89033 85535 81541 76835 74136 71092 67660 65738 63644 61313 58571 54858 51058
 1217.50 4.672E-05 97539 94970 92145 89041 85552 81528 76798 74058 70997 67509 65561 63442 61087 58305 54580 50792
 1222.50 4.654E-05 97550 94994 92200 89085 85604 81607 76902 74173 71100 67619 65685 63558 61195 58423 54684 50902
 1227.50 4.619E-05 97575 95042 92249 89175 85733 81771 77073 74367 71314 67850 65902 63780 61420 58649 54925 51137
 1232.50 4.617E-05 97596 95062 92289 89214 85748 81785 77085 74377 71323 67858 65909 63808 61447 58674 54949 51159
 1237.50 4.612E-05 97550 95035 92259 89202 85755 81787 77103 74393 71336 67866 65915 63790 61427 58630 54922 51127
 1242.50 4.596E-05 97607 95061 92298 89230 85792 81832 77154 74456 71410 67929 65992 63860 61510 58725 55004 51218
 1247.50 4.599E-05 97630 95108 92368 89324 85888 81931 77256 74560 71494 68015 66058 63927 61535 58752 55034 51250
 1252.50 4.568E-05 97636 95140 92404 89361 85946 82027 77364 74672 71629 68148 66200 64076 61712 58932 55210 51423
 1257.50 4.542E-05 97666 95200 92514 89520 86151 82255 77631 74945 71929 68450 66513 64377 61999 59225 55482 51695
 1262.50 4.543E-05 97667 95201 92516 89522 86155 82280 77658 74972 71935 68457 66498 64363 61963 59168 55426 51618
 1267.50 4.518E-05 97698 95241 92541 89553 86166 82271 77645 74967 71934 68460 66512 64387 62019 59230 55489 51704
 1272.50 4.531E-05 97771 95365 92695 89737 86361 82476 77842 75127 72081 68572 66608 64445 62039 59214 55462 51666
 1277.50 4.471E-05 97987 95773 93290 90494 87274 83516 78953 76247 73183 69649 67636 65444 62984 60098 56274 52427
 1282.50 4.025E-05 98534 96870 94957 92770 90211 87106 83230 80870 78137 74882 73019 70932 68522 65615 61640 57540
 1287.50 4.437E-05 97949 95673 93149 90309 87086 83300 78724 76042 73000 69506 67523 65359 62948 60086 56299 52468
 1292.50 4.461E-05 97803 95405 92782 89845 86528 82694 78122 75432 72405 68931 66958 64806 62408 59583 55817 52029
 1297.50 4.486E-05 97749 95363 92733 89790 86469 82635 78065 75368 72336 68836 66875 64712 62283 59452 55684 51895
 1302.50 4.443E-05 97727 95318 92663 89714 86406 82557 78010 75332 72339 68872 66914 64799 62390 59599 55863 52082
 1307.50 4.469E-05 97718 95323 92683 89752 86440 82614 78049 75364 72343 68852 66861 64712 62273 59454 55672 51913
 1312.50 4.412E-05 97733 95354 92747 89846 86559 82752 78219 75567 72575 69107 67158 65027 62625 59791 56052 52267
 1317.50 4.390E-05 97768 95399 92825 89932 86674 82916 78405 75786 72779 69339 67380 65239 62825 60000 56219 52437
 1322.50 4.431E-05 97766 95396 92778 89889 86594 82803 78244 75581 72557 69059 67095 64929 62492 59648 55856 52088
 1327.50 4.380E-05 97763 95388 92785 89886 86621 82854 78333 75708 72694 69247 67283 65137 62717 59886 56119 52329
 1332.50 4.393E-05 97792 95447 92852 89984 86729 82973 78466 75825 72820 69338 67357 65195 62759 59891 56112 52310
 1337.50 4.372E-05 97758 95403 92841 89982 86734 82983 78500 75846 72850 69396 67429 65256 62832 59973 56199 52402
 1342.50 4.389E-05 97790 95466 92891 90043 86808 83071 78583 75940 72910 69424 67441 65254 62816 59945 56140 52335
 1347.50 4.372E-05 97781 95471 92909 90073 86848 83097 78614 75984 72964 69488 67498 65325 62877 59995 56199 52402
 1352.50 4.354E-05 97818 95521 92995 90170 86977 83257 78801 76183 73174 69683 67708 65526 63068 60198 56385 52572
 1357.50 4.299E-05 97837 95557 93022 90230 87044 83345 78902 76297 73343 69877 67923 65759 63317 60456 56664 52873
 1362.50 4.319E-05 97824 95531 92984 90183 86988 83260 78815 76198 73211 69738 67770 65594 63140 60245 56425 52628
 1367.50 4.299E-05 97837 95557 93045 90254 87090 83415 78995 76390 73436 69970 67993 65829 63364 60479 56664 52850
 1372.50 4.267E-05 97867 95641 93180 90415 87298 83689 79306 76728 73799 70354 68385 66206 63745 60862 57019 53199
 1377.50 4.275E-05 97871 95626 93146 90386 87251 83602 79228 76632 73684 70222 68234 66058 63579 60678 56842 53029
 1382.50 4.276E-05 97895 95650 93195 90435 87301 83676 79280 76684 73737 70253 68265 66066 63587 60688 56829 53017
 1387.50 4.287E-05 97854 95615 93142 90390 87240 83602 79193 76580 73595 70119 68113 65897 63401 60462 56590 52764
 1392.50 4.257E-05 97933 95725 93282 90580 87479 83885 79516 76932 73972 70496 68499 66291 63801 60864 56988 53160
 1397.50 4.252E-05 97930 95743 93321 90593 87512 83913 79586 76999 74036 70555 68556 66345 63829 60889 56985 53151
 1402.50 4.215E-05 97912 95706 93262 90558 87473 83867 79549 76987 74045 70581 68588 66406 63915 60973 57106 53262
 1407.50 4.234E-05 97945 95749 93316 90624 87530 83940 79617 77019 74067 70595 68588 66367 63864 60888 56991 53165
 1412.50 4.183E-05 97968 95769 93378 90700 87640 84078 79775 77217 74277 70834 68850 66651 64141 61200 57327 53502
 1417.50 4.220E-05 97938 95782 93389 90711 87678 84123 79810 77251 74289 70806 68791 66564 64028 61043 57109 53246
 1422.50 4.146E-05 97974 95827 93439 90810 87795 84274 80029 77496 74578 71153 69151 66956 64448 61481 57574 53714
 1427.50 4.108E-05 98004 95837 93476 90847 87853 84348 80112 77605 74708 71300 69328 67137 64654 61709 57814 53968
 1432.50 4.166E-05 97936 95799 93447 90807 87806 84277 80029 77484 74556 71099 69083 66851 64330 61330 57393 53529
 1437.50 4.185E-05 97969 95842 93477 90848 87861 84349 80072 77515 74576 71087 69056 66810 64253 61219 57252 53381
 1442.50 4.005E-05 98077 96005 93733 91186 88290 84894 80774 78327 75506 72160 70237 68065 65593 62672 58777 54906
 1447.50 4.141E-05 97996 95895 93552 90944 87974 84497 80246 77711 74789 71335 69331 67085 64525 61507 57546 53659
 1452.50 4.038E-05 98093 96038 93759 91209 88311 84918 80783 78306 75458 72065 70109 67905 65404 62407 58470 54557
 1457.00 4.099E-05 98048 95975 93681 91095 88168 84704 80507 77995 75091 71652 69651 67407 64845 61820 57819 53916
 1462.00 4.079E-05 98112 96028 93748 91174 88232 84800 80633 78132 75239 71807 69821 67590 65040 62000 58029 54131
 1467.50 4.084E-05 98115 96033 93756 91210 88271 84843 80681 78183 75269 71841 69833 67581 65010 61974 57958 54040
 1472.50 4.024E-05 98111 96049 93787 91228 88320 84940 80790 78330 75447 72043 70080 67868 65308 62301 58325 54423
 1477.50 4.008E-05 98129 96083 93837 91317 88423 85055 80938 78493 75649 72255 70284 68064 65544 62525 58533 54641
 1482.50 4.022E-05 98135 96096 93834 91298 88414 85032 80930 78444 75584 72178 70189 67976 65415 62382 58354 54451
 1487.50 3.945E-05 98150 96122 93891 91407 88542 85196 81141 78707 75894 72548 70596 68416 65906 62940 58986 55108
 1492.50 4.050E-05 98148 96123 93877 91383 88519 85136 81012 78543 75679 72247 70222 67951 65358 62247 58148 54222
 1497.50 3.992E-05 98171 96142 93938 91433 88602 85271 81187 78732 75902 72495 70516 68262 65681 62625 58567 54609
 1502.50 3.906E-05 98182 96160 93958 91475 88658 85330 81311 78904 76114 72785 70865 68689 66180 63210 59268 55402
 1507.50 3.900E-05 98179 96205 94000 91564 88744 85462 81436 79026 76256 72923 70974 68769 66256 63231 59231 55282
 1512.50 3.971E-05 98187 96172 93981 91488 88668 85344 81289 78847 76001 72627 70637 68396 65827 62730 58650 54697
 1517.50 3.974E-05 98188 96200 94011 91545 88727 85430 81404 78963 76145 72748 70760 68520 65903 62808 58681 54706
 1522.50 3.916E-05 98212 96246 94076 91624 88866 85598 81614 79213 76430 73085 71118 68871 66318 63228 59116 55158
 1527.50 3.945E-05 98200 96248 94094 91686 88897 85653 81648 79265 76451 73055 71077 68821 66210 63093 58935 54956
 1532.50 3.910E-05 98235 96292 94143 91739 88977 85754 81790 79412 76624 73274 71304 69079 66471 63350 59207 55217
 1537.50 3.903E-05 98258 96336 94235 91852 89137 85960 82039 79657 76890 73533 71560 69306 66692 63541 59339 55316
 1542.50 3.885E-05 98250 96345 94234 91866 89163 85997 82085 79717 76963 73642 71660 69447 66847 63732 59562 55547
 1547.50 3.874E-05 98271 96386 94295 91946 89262 86087 82189 79814 77052 73722 71760 69515 66908 63758 59577 55524
 1552.50 3.832E-05 98278 96399 94311 91962 89301 86143 82281 79932 77192 73878 71921 69676 67093 63961 59786 55741
 1557.50 3.810E-05 98241 96325 94226 91864 89160 85984 82100 79764 77034 73753 71811 69606 67060 63990 59869 55879
 1562.50 3.860E-05 98342 96529 94508 92228 89585 86477 82617 80259 77513 74119 72124 69819 67150 63912 59637 55518
 1567.50 3.763E-05 98299 96439 94393 92081 89450 86341 82541 80229 77518 74276 72336 70130 67579 64470 60324 56258
 1572.50 3.792E-05 98339 96493 94488 92220 89610 86551 82780 80485 77795 74525 72574 70359 67748 64610 60390 56276
 1577.50 3.690E-05 98320 96504 94472 92195 89566 86477 82683 80379 77696 74472 72547 70379 67832 64797 60705 56721
 1582.50 3.744E-05 98344 96554 94551 92308 89717 86645 82853 80556 77831 74546 72596 70353 67735 64583 60363 56277
 1587.50 3.601E-05 98306 96473 94446 92169 89614 86587 82921 80700 78117 75007 73202 71119 68675 65732 61705 57706
 1592.50 3.702E-05 98298 96461 94435 92166 89546 86467 82685 80389 77715 74473 72555 70340 67801 64695 60535 56510
 1597.50 3.761E-05 98325 96490 94470 92156 89524 86413 82584 80271 77533 74236 72268 70035 67402 64238 60011 55943
 1605.00 3.701E-05 98379 96623 94650 92434 89868 86868 83113 80843 78168 74899 72980 70738 68117 64955 60686 56579
 1615.00 3.635E-05 98404 96671 94718 92545 90069 87125 83466 81265 78652 75461 73563 71389 68831 65722 61486 57387
 1625.00 3.706E-05 98354 96546 94549 92283 89692 86589 82812 80491 77793 74501 72558 70318 67701 64517 60254 56152
 1635.00 3.611E-05 98477 96788 94904 92800 90335 87427 83800 81584 78953 75741 73830 71615 68984 65799 61507 57380
 1645.00 3.530E-05 98499 96856 95014 92946 90538 87705 84164 81983 79433 76317 74448 72295 69745 66629 62408 58272
 1655.00 3.630E-05 98375 96584 94573 92342 89752 86694 82948 80661 77989 74711 72782 70551 67961 64793 60579 56529
 1665.00 3.611E-05 98366 96566 94600 92357 89781 86735 82996 80698 78039 74772 72833 70618 68014 64830 60593 56549
 1675.00 3.488E-05 98538 96904 95097 93062 90682 87844 84289 82110 79501 76319 74427 72219 69639 66456 62213 58114
 1685.00 3.380E-05 98580 97012 95237 93284 90976 88225 84793 82692 80207 77130 75325 73195 70710 67663 63521 59408
 1695.00 3.530E-05 98414 96657 94703 92521 90000 86997 83286 81020 78357 75099 73173 70963 68357 65212 61020 56997
 1705.00 3.459E-05 98381 96589 94594 92368 89824 86817 83117 80890 78260 75080 73200 71032 68517 65452 61347 57387
 1715.00 3.451E-05 98377 96610 94639 92437 89887 86902 83222 80991 78354 75167 73254 71110 68560 65488 61374 57404
 1725.00 3.367E-05 98456 96733 94832 92694 90199 87259 83635 81408 78824 75676 73805 71666 69171 66142 62103 58153
 1735.00 3.155E-05 98732 97306 95721 93914 91791 89223 86022 84025 81680 78764 77052 75024 72678 69731 65674 61648
 1745.00 3.284E-05 98538 96924 95128 93088 90713 87881 84348 82186 79629 76523 74665 72533 70037 67022 62942 58983
 1755.00 3.311E-05 98399 96678 94745 92570 90063 87104 83479 81275 78677 75536 73694 71580 69103 66113 62096 58170
 1765.00 3.285E-05 98387 96651 94703 92542 90046 87093 83470 81279 78721 75586 73760 71629 69163 66180 62192 58326
 1775.00 3.260E-05 98344 96595 94632 92454 89939 86963 83313 81135 78528 75429 73589 71472 69018 66074 62117 58252
 1785.00 3.241E-05 98396 96637 94724 92533 90065 87103 83493 81302 78741 75625 73774 71675 69207 66245 62265 58408
 1795.00 3.220E-05 98385 96646 94720 92547 90031 87081 83447 81242 78665 75528 73696 71584 69130 66180 62236 58385
 1805.00 3.162E-05 98482 96806 94940 92821 90386 87508 83934 81752 79190 76091 74257 72201 69766 66825 62872 59013
 1815.00 2.963E-05 98785 97435 95916 94161 92136 89673 86534 84610 82315 79480 77759 75802 73507 70638 66655 62673
 1825.00 3.052E-05 98624 97084 95380 93414 91121 88368 84928 82831 80341 77294 75491 73427 71003 68087 64155 60288
 1835.00 3.090E-05 98447 96731 94854 92718 90259 87379 83786 81618 79094 76019 74207 72136 69741 66861 62977 59191
 1845.00 3.045E-05 98424 96716 94811 92644 90181 87291 83711 81544 79048 75993 74220 72184 69852 66995 63186 59442
 1855.00 3.034E-05 98451 96770 94891 92782 90343 87442 83916 81773 79268 76236 74423 72413 70040 67172 63349 59591
 1865.00 2.969E-05 98518 96868 95049 92961 90569 87740 84203 82082 79589 76591 74840 72819 70495 67666 63894 60155
 1875.00 2.725E-05 98899 97725 96367 94752 92881 90606 87670 85872 83706 81028 79413 77578 75376 72661 68881 64991
 1885.00 2.924E-05 98564 96956 95178 93194 90834 88064 84610 82490 80027 77018 75239 73256 70930 68092 64330 60568
 1895.00 2.861E-05 98462 96784 94897 92800 90388 87557 84096 81999 79553 76652 74939 73016 70779 68088 64453 60818
 1905.00 2.919E-05 98424 96711 94861 92737 90339 87496 83967 81843 79377 76362 74615 72593 70298 67489 63755 60055
 1915.00 2.885E-05 98406 96742 94870 92790 90364 87522 84021 81906 79411 76430 74697 72721 70399 67660 63917 60243
 1925.00 2.860E-05 98462 96783 94965 92867 90490 87657 84161 82063 79615 76643 74895 72937 70629 67867 64161 60490
 1935.00 2.796E-05 98569 96996 95207 93205 90880 88090 84657 82582 80150 77217 75501 73534 71280 68562 64843 61195
 1945.00 2.594E-05 98921 97687 96338 94757 92907 90632 87741 85968 83809 81187 79607 77795 75636 72976 69275 65497
 1955.00 2.767E-05 98591 97037 95302 93314 91001 88291 84893 82797 80376 77449 75714 73726 71485 68739 65016 61330
 1965.00 2.757E-05 98477 96844 94995 92963 90569 87777 84331 82263 79833 76895 75190 73268 71019 68335 64672 61045
 1975.00 2.730E-05 98425 96777 94945 92894 90513 87729 84286 82198 79817 76886 75201 73297 71062 68388 64799 61172
 1985.00 2.723E-05 98421 96768 94932 92839 90488 87697 84245 82152 79728 76827 75138 73228 70988 68307 64708 61109
 1995.00 2.702E-05 98409 96743 94893 92857 90489 87676 84271 82198 79793 76869 75204 73279 71058 68394 64804 61214
 2005.00 2.692E-05 98403 96731 94911 92868 90490 87704 84287 82207 79792 76895 75223 73291 71100 68425 64822 61218
 2015.00 2.682E-05 98397 96756 94966 92916 90567 87770 84340 82289 79866 76957 75242 73304 71104 68419 64802 61223
 2025.00 2.635E-05 98406 96736 94915 92865 90512 87742 84326 82277 79886 77040 75370 73472 71309 68691 65123 61594
 2035.00 2.597E-05 98421 96804 94994 92953 90605 87832 84482 82441 80054 77243 75587 73739 71583 69003 65499 61956
 2045.00 2.615E-05 98394 96750 94952 92925 90593 87801 84398 82371 79962 77094 75411 73499 71319 68681 65124 61568
 2055.00 2.587E-05 98415 96792 94975 92965 90607 87862 84461 82412 80015 77155 75493 73637 71434 68844 65327 61770
 2065.00 2.549E-05 98431 96822 95018 93017 90702 87956 84582 82581 80228 77403 75755 73911 71754 69164 65673 62181
 2075.00 2.537E-05 98463 96847 95034 93023 90737 87978 84628 82617 80252 77414 75759 73906 71778 69176 65668 62160
 2085.00 2.519E-05 98412 96824 94998 93013 90671 87932 84557 82533 80191 77372 75744 73879 71775 69194 65701 62207
 2095.00 2.484E-05 98430 96820 95048 93035 90741 88003 84662 82649 80314 77536 75926 74074 71981 69444 66023 62560
 2105.00 2.482E-05 98469 96898 95125 93110 90814 88114 84770 82756 80419 77639 75987 74174 72039 69460 65995 62530
 2115.00 2.455E-05 98493 96904 95153 93157 90876 88187 84847 82851 80530 77760 76130 74297 72179 69654 66191 62729
 2125.00 2.435E-05 98439 96879 95113 93142 90842 88172 84846 82875 80534 77782 76181 74333 72238 69733 66283 62834
 2135.00 2.422E-05 98514 96945 95211 93229 90958 88274 84971 82989 80677 77911 76301 74484 72378 69860 66433 62964
 2145.00 2.407E-05 98504 96967 95222 93270 90985 88326 85002 83008 80681 77898 76278 74491 72372 69838 66390 62941
 2155.00 2.374E-05 98652 97178 95493 93597 91407 88753 85510 83530 81213 78433 76832 74979 72915 70345 66933 63437
 2165.00 2.187E-05 98994 97897 96662 95199 93507 91404 88752 87060 85094 82716 81253 79607 77686 75263 71788 68221
 2175.00 2.312E-05 98702 97275 95631 93815 91652 89057 85856 83910 81661 78936 77336 75562 73486 71021 67604 64144
 2185.00 2.317E-05 98576 97065 95339 93397 91152 88520 85240 83297 81010 78291 76694 74924 72896 70436 67069 63660
 2195.00 2.320E-05 98491 96897 95172 93233 90991 88319 85043 83060 80776 78017 76422 74655 72586 70129 66767 63362
 2205.00 2.280E-05 98465 96930 95219 93246 91009 88377 85132 83202 80921 78246 76711 74956 72939 70526 67193 63816
 2215.00 2.276E-05 98506 96968 95255 93278 91081 88445 85193 83260 80975 78295 76714 74956 72935 70518 67179 63752
 2225.00 2.262E-05 98453 96905 95137 93192 90937 88285 85057 83112 80813 78117 76569 74801 72767 70336 67020 63660
 2235.00 2.244E-05 98485 96925 95187 93226 90998 88324 85071 83155 80882 78209 76649 74866 72861 70455 67157 63770
 2245.00 2.226E-05 98518 96945 95238 93306 91060 88410 85175 83243 80997 78302 76774 75022 73001 70620 67296 63971
 2255.00 2.201E-05 98501 96956 95275 93321 91095 88505 85279 83371 81145 78510 76965 75239 73285 70877 67606 64289
 2265.00 2.187E-05 98491 96936 95199 93278 91038 88386 85185 83265 81024 78372 76863 75126 73160 70782 67535 64198
 2275.00 2.178E-05 98485 96970 95271 93343 91139 88522 85308 83379 81129 78512 76951 75253 73278 70891 67585 64279
 2285.00 2.151E-05 98559 97025 95305 93398 91167 88563 85356 83450 81218 78615 77080 75407 73454 71083 67829 64528
 2295.00 2.136E-05 98596 97051 95318 93399 91152 88483 85253 83287 81039 78324 76779 75047 73034 70552 67182 63577
 2305.00 2.131E-05 98592 97044 95354 93383 91178 88550 85312 83388 81136 78461 76959 75223 73205 70812 67480 64054
 2315.00 2.107E-05 98624 97057 95349 93450 91220 88609 85430 83484 81300 78643 77124 75415 73469 71096 67822 64452
 2325.00 2.092E-05 98614 97036 95315 93356 91061 88432 85134 83174 80880 78203 76625 74857 72849 70363 66922 63289
 2335.00 2.074E-05 98602 97059 95323 93394 91176 88573 85391 83462 81244 78592 77049 75362 73385 71022 67695 64272
 2345.00 2.070E-05 98599 97053 95362 93430 91256 88647 85411 83527 81304 78647 77150 75411 73478 71111 67826 64444
 2355.00 2.043E-05 98581 97014 95301 93343 91043 88399 85120 83162 80861 78169 76652 74890 72883 70436 67009 63387
 2365.00 2.038E-05 98626 97105 95388 93474 91266 88616 85427 83464 81256 78606 77085 75417 73405 71050 67713 64279
 2375.00 2.016E-05 98611 97073 95387 93502 91319 88690 85516 83631 81448 78869 77381 75694 73760 71429 68155 64782
 2385.00 1.991E-05 98594 97037 95279 93320 91110 88448 85234 83275 81065 78403 76896 75188 73230 70819 67454 63837
 2395.00 1.990E-05 98593 97085 95377 93467 91256 88643 85427 83518 81357 78744 77236 75578 73618 71256 67940 64472
 2405.00 1.971E-05 98630 97108 95434 93506 91324 88737 85591 83663 81532 78945 77473 75799 73922 71588 68392 64992
 2415.00 1.953E-05 98566 97030 95341 93395 91193 88582 85356 83461 81208 78597 77112 75422 73477 71121 67793 64209
 2425.00 1.941E-05 98609 97115 95415 93509 91293 88717 85523 83668 81453 78928 77434 75786 73879 71510 68264 64812
 2435.00 1.922E-05 98595 97086 95421 93548 91363 88814 85692 83819 81634 79136 77680 76067 74194 71904 68678 65297
 2445.00 1.913E-05 98589 97073 95400 93466 91270 88709 85520 83638 81443 78881 77418 75745 73863 71511 68217 64715
 2455.00 1.884E-05 98620 97134 95435 93577 91401 88854 85722 83864 81741 79193 77760 76168 74257 71975 68737 65287
 2465.00 1.889E-05 98677 97141 95500 93595 91477 88883 85813 83960 81789 79301 77819 76178 74325 72049 68872 65484
 2475.00 1.868E-05 98662 97163 95503 93630 91488 88919 85814 83940 81799 79283 77837 76231 74358 72056 68897 65471
 2485.00 1.841E-05 98642 97121 95492 93645 91472 88973 85877 84030 81912 79468 78001 76426 74579 72298 69093 65617
 2495.00 1.840E-05 98641 97120 95489 93587 91467 88913 85815 84022 81902 79457 78043 76413 74620 72391 69239 65870
 2505.00 1.841E-05 98588 97121 95437 93536 91418 88865 85769 83922 81803 79305 77892 76263 74416 72189 69093 65779
 2515.00 1.820E-05 98626 97143 95495 93626 91429 88901 85824 83956 81813 79341 77857 76264 74396 72143 68901 65440
 2525.00 1.810E-05 98674 97182 95525 93702 91547 89061 85967 84144 82044 79613 78177 76575 74751 72541 69392 66022
 2535.00 1.795E-05 98663 97214 95543 93705 91588 89136 86072 84234 82173 79721 78329 76713 74930 72702 69582 66295
 2545.00 1.781E-05 98709 97193 95564 93711 91578 89051 86019 84166 82089 79618 78214 76642 74846 72600 69455 66143
 2555.00 1.763E-05 98639 97221 95576 93761 91662 89166 86160 84345 82303 79864 78503 76914 75156 72944 69824 66534
 2565.00 1.744E-05 98681 97248 95585 93807 91686 89220 86239 84518 82454 80103 78727 77236 75459 73280 70241 66972
 2575.00 1.750E-05 98686 97257 95657 93829 91714 89257 86229 84400 82343 79943 78514 76971 75200 72971 69886 66629
 2585.00 1.719E-05 98662 97150 95521 93717 91565 89122 86097 84293 82257 79930 78534 77022 75276 73124 70041 66783
 2595.00 1.724E-05 98666 97216 95592 93736 91647 89153 86137 84339 82251 79872 78480 76972 75174 73028 69954 66705
 2605.00 1.709E-05 98713 97308 95728 93973 91925 89468 86483 84728 82680 80281 78935 77355 75600 73435 70392 67115
 2615.00 1.681E-05 98810 97442 95955 94170 92207 89827 86913 85187 83165 80845 79477 77989 76264 74123 71029 67757
 2625.00 1.571E-05 99109 98090 96945 95608 94080 92171 89752 88351 86633 84596 83386 81986 80331 78230 75175 71865
 2635.00 1.662E-05 98797 97473 95969 94224 92238 89892 86943 85199 83213 80806 79483 77978 76233 74067 71059 67810
 2645.00 1.657E-05 98733 97284 95655 93844 91792 89378 86421 84671 82680 80326 78998 77489 75800 73687 70730 67592
 2655.00 1.652E-05 98668 97276 95642 93826 91768 89346 86380 84625 82567 80266 78935 77421 75666 73608 70642 67433
 2665.00 1.626E-05 98708 97294 95756 93973 91943 89545 86654 84932 82964 80627 79336 77860 76138 74047 71095 67897
 2675.00 1.619E-05 98703 97344 95800 94070 92094 89747 86906 85176 83261 81038 79741 78258 76590 74490 71526 68376
 2685.00 1.625E-05 98769 97354 95754 94031 92000 89538 86646 84862 82892 80554 79262 77723 76000 73908 70954 67815
 2695.00 1.620E-05 98642 97222 95617 93827 91728 89259 86296 84568 82531 80247 78889 77407 75679 73580 70617 67469
 2705.00 1.611E-05 98572 97145 95531 93731 91620 89199 86220 84482 82495 80199 78895 77405 75667 73619 70701 67598
 2715.00 1.599E-05 98624 97123 95560 93746 91682 89243 86304 84553 82552 80300 78987 77486 75797 73734 70857 67730
 2725.00 1.588E-05 98615 97166 95592 93766 91688 89295 86335 84635 82620 80353 79030 77582 75882 73867 70970 67884
 2735.00 1.580E-05 98608 97215 95633 93797 91772 89367 86392 84684 82722 80380 79114 77595 75949 73861 70949 67848
 2745.00 1.568E-05 98724 97321 95791 94005 91964 89605 86671 84949 82972 80676 79401 77934 76212 74171 71237 68176
 2755.00 1.531E-05 98824 97453 95950 94317 92358 90072 87329 85696 83801 81646 80405 78968 77335 75310 72436 69366
 2765.00 1.530E-05 98758 97386 95882 94183 92222 89935 87124 85490 83595 81373 80065 78627 76993 74967 72092 69020
 2775.00 1.534E-05 98696 97327 95763 94003 91917 89570 86636 84941 82986 80769 79465 78031 76336 74316 71447 68449
 2785.00 1.528E-05 98626 97251 95615 93848 91819 89398 86518 84817 82853 80628 79319 77880 76243 74215 71401 68390
 2795.00 1.523E-05 98555 97111 95535 93762 91727 89297 86408 84701 82797 80499 79251 77807 76165 74130 71307 68221
 2805.00 1.512E-05 98545 97156 95569 93783 91733 89352 86442 84722 82804 80556 79299 77910 76257 74206 71429 68386
 2815.00 1.504E-05 98537 97141 95545 93750 91755 89362 86436 84774 82846 80585 79322 77859 76263 74202 71410 68351
 2825.00 1.493E-05 98593 97187 95579 93838 91829 89417 86537 84863 82920 80710 79437 78031 76423 74414 71601 68587
 2835.00 1.486E-05 98587 97174 95626 93876 91857 89435 86608 84859 82974 80754 79475 78062 76447 74428 71602 68641
 2845.00 1.470E-05 98639 97211 95646 93878 91905 89524 86667 85034 83129 80952 79660 78299 76667 74694 71905 68912
 2855.00 1.463E-05 98701 97266 95762 93985 92003 89679 86808 85099 83254 80998 79768 78401 76760 74778 71975 68968
 2865.00 1.441E-05 98820 97502 96044 94379 92436 90146 87370 85774 83900 81749 80500 79112 77446 75503 72658 69674
 2875.00 1.407E-05 98863 97655 96233 94598 92822 90618 88060 86496 84790 82729 81521 80242 78678 76688 73916 70945
 2885.00 1.430E-05 98741 97413 95874 94196 92238 89930 87133 85455 83566 81399 80140 78811 77203 75245 72448 69476
 2895.00 1.428E-05 98669 97269 95728 93978 92017 89636 86835 85154 83333 81162 79902 78501 76891 75000 72199 69244
 2905.00 1.420E-05 98662 97254 95704 93944 91972 89577 86761 85141 83239 81127 79859 78521 76901 74930 72183 69218
 2915.00 1.410E-05 98652 97234 95674 93972 91986 89645 86879 85177 83333 81206 80000 78582 77021 75106 72340 69397
 2925.00 1.398E-05 98641 97282 95708 93991 91989 89628 86838 85265 83405 81259 80043 78684 77110 75179 72461 69499
 2935.00 1.394E-05 98637 97274 95696 93974 91966 89670 86872 85222 83357 81205 79986 78623 77044 75108 72382 69455
 2945.00 1.382E-05 98698 97250 95731 93994 91968 89653 86903 85239 83430 81259 80101 78726 77135 75253 72504 69566
 2955.00 1.377E-05 98620 97240 95715 93972 91939 89615 86855 85185 83370 81264 80029 78649 77124 75163 72469 69535
 2965.00 1.370E-05 98540 97153 95620 93942 91898 89635 86861 85182 83358 81241 80000 78686 77080 75182 72474 69540
 2975.00 1.361E-05 98530 97208 95665 93902 91918 89640 86848 85231 83395 81264 80088 78766 77223 75312 72572 69647
 2985.00 1.353E-05 98596 97265 95713 93939 92018 89653 86918 85292 83444 81375 80192 78788 77236 75388 72661 69749
 2995.00 1.341E-05 98658 97241 95749 94034 92021 89784 87025 85384 83594 81506 80313 78971 77479 75541 72886 69993
 3005.00 1.333E-05 98725 97299 95799 94074 92123 89872 87097 85521 83646 81620 80420 79070 77569 75619 72963 70068
 3015.00 1.327E-05 98644 97287 95780 94047 92163 89827 87114 85531 83723 81613 80407 79126 77543 75659 72999 70113
 3025.00 1.314E-05 98782 97489 95967 94292 92390 90107 87367 85769 84018 81887 80746 79376 77854 75989 73311 70419
 3035.00 1.272E-05 98899 97720 96384 94890 93082 91038 88601 87107 85456 83569 82390 81132 79638 77807 75134 72217
 3045.00 1.281E-05 98907 97658 96331 94770 92974 90867 88290 86807 85090 83060 81889 80562 79079 77182 74489 71569
 3055.00 1.291E-05 98838 97444 95972 94268 92409 90085 87452 85825 84043 82029 80790 79473 78002 76119 73462 70581
 3065.00 1.285E-05 98599 97276 95720 94086 92140 89883 87160 85603 83813 81790 80623 79377 77821 75984 73339 70475
 3075.00 1.281E-05 98673 97346 95785 94145 92194 89930 87198 85636 83841 81811 80640 79313 77814 75956 73310 70445
 3085.00 1.269E-05 98660 97242 95745 94090 92120 89913 87234 85658 83924 81875 80693 79433 77951 76115 73491 70638
 3095.00 1.263E-05 98654 97229 95724 94062 92162 89865 87173 85669 83927 81869 80760 79414 77941 76105 73484 70625
 3105.00 1.258E-05 98649 97297 95787 94118 92210 89984 87281 85692 83943 81955 80763 79491 78005 76161 73537 70684
 3115.00 1.239E-05 98709 97417 95884 94270 92333 90153 87490 85956 84262 82244 81114 79871 78402 76594 73995 71162
 3125.00 1.241E-05 98630 97341 95810 94118 92184 90008 87349 85818 84045 82031 80903 79621 78139 76317 73707 70870
 3135.00 1.236E-05 98625 97330 95793 94094 92233 89968 87298 85761 84061 82039 80898 79620 78139 76319 73706 70866
 3145.00 1.228E-05 98697 97313 95847 94137 92264 90065 87378 85831 84121 82085 80969 79699 78225 76401 73787 70953
 3155.00 1.217E-05 98685 97371 95892 94166 92276 90058 87428 85949 84224 82251 81085 79819 78357 76557 73969 71142
 3165.00 1.213E-05 98681 97362 95796 94147 92251 90025 87387 85820 84089 82119 80989 79728 78269 76455 73875 71055
 3175.00 1.206E-05 98590 97264 95771 94113 92206 90050 87396 85904 84163 82206 81086 79826 78367 76567 73980 71169
 3185.00 1.200E-05 98667 97333 95833 94167 92250 90000 87417 85833 84167 82183 81058 79808 78350 76550 73975 71158
 3195.00 1.195E-05 98661 97322 95816 94142 92218 90042 87448 85858 84184 82201 81071 79816 78360 76561 73975 71163
 3210.00 1.182E-05 98731 97377 95854 94247 92301 90102 87479 86041 84306 82343 81235 79983 78536 76751 74179 71379
 3230.00 1.170E-05 98718 97436 95897 94274 92393 90171 87607 86068 84350 82393 81282 80034 78581 76795 74239 71436
 3250.00 1.156E-05 98702 97318 95848 94204 92301 90138 87543 86055 84369 82431 81332 80095 78668 76894 74351 71557
 3270.00 1.141E-05 98773 97458 95968 94303 92463 90272 87730 86249 84575 82647 81551 80324 78896 77125 74584 71805
 3290.00 1.099E-05 98999 97816 96542 95086 93449 91538 89172 87816 86269 84468 83421 82238 80855 79108 76579 73776
 3310.00 1.108E-05 98827 97563 96209 94585 92780 90704 88240 86796 85162 83276 82202 80993 79576 77825 75298 72518
 3330.00 1.100E-05 98818 97455 96000 94455 92545 90464 87945 86482 84855 82973 81900 80700 79300 77564 75055 72291
 3350.00 1.092E-05 98718 97436 95971 94322 92491 90366 87848 86392 84753 82875 81813 80614 79212 77482 74982 72225
 3370.00 1.077E-05 98700 97400 96007 94429 92572 90464 87976 86537 84921 83064 82006 80817 79434 77716 75227 72479
 3390.00 1.064E-05 98778 97462 96053 94455 92613 90517 88036 86607 85000 83158 82115 80930 79549 77838 75367 72622
 3410.00 1.051E-05 98763 97431 96004 94443 92626 90542 88088 86670 85081 83254 82217 81047 79677 77983 75519 72788
 3430.00 1.045E-05 98756 97416 95981 94383 92565 90469 88000 86574 84976 83148 82096 80919 79550 77856 75388 72670
 3450.00 1.036E-05 98745 97490 96004 94402 92577 90483 88002 86573 84981 83147 82095 80927 79556 77857 75396 72674
 3470.00 1.024E-05 98730 97412 95986 94385 92578 90488 88027 86621 85039 83213 82178 81016 79658 77969 75518 72803
 3490.00 1.014E-05 98619 97377 95947 94349 92544 90464 88018 86617 85039 83225 82199 81036 79684 77998 75562 72860
 3510.00 1.003E-05 98774 97478 96062 94467 92662 90588 88156 86750 85174 83370 82343 81186 79840 78156 75723 73021
 3530.00 9.909E-06 98728 97437 96024 94439 92643 90584 88172 86780 85226 83439 82420 81270 79937 78262 75840 73146
 3550.00 9.820E-06 98727 97444 96029 94450 92668 90611 88198 86813 85265 83483 82464 81314 79980 78320 75896 73208
 3570.00 9.699E-06 98752 97474 96072 94505 92731 90690 88298 86916 85380 83617 82606 81472 80142 78482 76080 73389
 3590.00 9.596E-06 98760 97489 96082 94519 92747 90725 88339 86974 85452 83691 82691 81555 80242 78585 76188 73510
 3610.00 9.524E-06 98730 97459 96063 94498 92724 90697 88314 86949 85416 83662 82665 81531 80208 78559 76165 73499
 3630.00 9.425E-06 98748 97485 96085 94525 92764 90748 88382 87013 85496 83745 82748 81623 80308 78663 76276 73602
 3650.00 9.292E-06 98773 97514 96126 94576 92833 90831 88485 87150 85644 83922 82932 81823 80521 78896 76517 73848
 3670.00 9.191E-06 98771 97519 96138 94603 92873 90882 88554 87227 85725 84017 83038 81928 80633 79012 76640 73985
 3690.00 9.027E-06 98848 97607 96245 94727 93021 91071 88789 87493 86031 84358 83394 82309 81046 79439 77102 74454
 3710.00 8.937E-06 98825 97594 96229 94719 93018 91071 88799 87501 86047 84380 83417 82332 81067 79479 77129 74488
 3730.00 8.789E-06 98976 97838 96575 95164 93560 91717 89532 88269 86847 85197 84242 83161 81886 80294 77927 75265
 3750.00 8.580E-06 98986 97879 96667 95303 93753 91981 89907 88695 87343 85769 84848 83811 82587 81026 78706 76061
 3770.00 8.716E-06 98818 97591 96237 94722 93036 91097 88837 87540 86095 84431 83479 82400 81138 79543 77214 74587
 3790.00 8.627E-06 98794 97566 96210 94703 92999 91075 88814 87539 86102 84444 83494 82427 81175 79599 77281 74649
 3810.00 8.554E-06 98843 97615 96259 94763 93068 91150 88906 87632 86194 84545 83598 82523 81272 79694 77379 74749
 3830.00 8.497E-06 98823 97599 96246 94739 93045 91126 88878 87584 86148 84500 83547 82476 81229 79652 77333 74709
 3850.00 8.433E-06 98802 97569 96217 94699 93004 91071 88818 87525 86090 84442 83493 82414 81157 79592 77280 74659
 3870.00 8.323E-06 98787 97561 96227 94725 93055 91145 88922 87649 86231 84597 83660 82602 81365 79803 77508 74901
 3890.00 8.240E-06 98811 97597 96262 94782 93119 91214 89005 87743 86335 84709 83774 82718 81481 79915 77621 75012
 3910.00 8.165E-06 98885 97673 96350 94868 93203 91317 89124 87863 86454 84838 83907 82854 81617 80061 77759 75162
 3930.00 8.110E-06 98792 97583 96252 94760 93095 91196 88989 87731 86313 84698 83761 82713 81467 79914 77633 75031
 3950.00 8.002E-06 98813 97601 96263 94776 93127 91240 89053 87803 86416 84816 83892 82854 81630 80092 77818 75231
 3970.00 7.945E-06 98767 97546 96211 94726 93065 91177 88999 87753 86369 84758 83839 82807 81586 80050 77785 75192
 3990.00 7.811E-06 98835 97632 96313 94853 93228 91384 89246 88030 86660 85098 84189 83178 81974 80451 78197 75611
 4010.00 7.749E-06 98890 97703 96412 94967 93354 91534 89405 88192 86837 85263 84359 83340 82127 80604 78346 75765
 4030.00 7.702E-06 98922 97741 96442 95001 93391 91561 89418 88198 86835 85264 84355 83316 82109 80576 78317 75747
 4050.00 7.443E-06 99100 98106 97017 95781 94371 92758 90837 89708 88446 86941 86081 85087 83904 82400 80142 77549
 4070.00 7.564E-06 98863 97686 96391 94950 93350 91512 89397 88181 86819 85259 84347 83329 82126 80619 78358 75793
 4090.00 7.503E-06 98800 97614 96308 94869 93256 91430 89311 88098 86752 85193 84300 83287 82087 80581 78342 75783
 4110.00 7.452E-06 98819 97625 96310 94860 93250 91412 89278 88070 86715 85158 84259 83253 82059 80542 78301 75751
 4130.00 7.393E-06 98823 97633 96334 94887 93264 91438 89314 88097 86758 85189 84296 83281 82091 80576 78344 75788
 4150.00 7.299E-06 98835 97671 96383 94972 93383 91574 89478 88286 86957 85423 84532 83518 82340 80833 78614 76065
 4170.00 7.210E-06 98932 97781 96519 95132 93564 91803 89750 88585 87268 85742 84868 83870 82691 81193 78960 76408
 4190.00 7.166E-06 98842 97684 96414 95004 93427 91641 89576 88390 87078 85543 84664 83659 82487 80994 78775 76235
 4210.00 7.073E-06 98869 97710 96437 95037 93468 91701 89651 88491 87191 85678 84816 83826 82666 81196 78991 76460
 4230.00 7.071E-06 98826 97638 96351 94923 93325 91529 89450 88262 86947 85405 84528 83538 82365 80880 78659 76128
 4250.00 6.984E-06 98826 97652 96377 94960 93385 91595 89548 88373 87070 85553 84679 83691 82532 81057 78852 76332
 4270.00 6.938E-06 98804 97622 96339 94926 93341 91568 89507 88340 87028 85529 84650 83670 82502 81032 78841 76304
 4290.00 6.828E-06 98814 97613 96295 94845 93234 91418 89338 88137 86804 85267 84388 83363 82176 80653 78368 75732
 4310.00 6.724E-06 98795 97591 96282 94825 93218 91404 89322 88132 86808 85262 84369 83358 82153 80622 78302 75610
 4330.00 6.673E-06 98846 97662 96373 94965 93391 91623 89585 88416 87112 85614 84730 83740 82572 81088 78855 76278
 4350.00 6.545E-06 98808 97601 96303 94866 93277 91474 89412 88235 86921 85393 84507 83499 82292 80764 78442 75737
 4370.00 6.431E-06 98943 97807 96548 95180 93671 91961 89970 88835 87560 86067 85212 84217 83035 81543 79272 76613
 4390.00 6.424E-06 98926 97774 96513 95143 93602 91859 89866 88714 87422 85912 85040 84060 82877 81367 79094 76479
 4410.00 6.301E-06 98857 97667 96350 94921 93350 91573 89525 88367 87066 85542 84653 83653 82447 80892 78543 75766
 4430.00 6.282E-06 98870 97676 96402 94986 93426 91675 89653 88507 87217 85705 84830 83843 82665 81153 78860 76186
 4450.00 6.239E-06 98878 97708 96426 95031 93477 91729 89726 88572 87274 85767 84901 83908 82722 81215 78923 76214
 4470.00 6.130E-06 98842 97635 96330 94894 93312 91533 89478 88320 87015 85481 84600 83573 82365 80799 78401 75579
 4490.00 6.121E-06 98856 97680 96406 95001 93465 91717 89708 88564 87273 85787 84904 83924 82732 81229 78909 76197
 4510.00 6.063E-06 98895 97724 96470 95068 93535 91786 89791 88652 87366 85865 85007 84018 82830 81313 79004 76282
 4530.00 5.971E-06 98861 97672 96366 94942 93385 91626 89600 88427 87138 85614 84726 83721 82499 80941 78530 75699
 4550.00 5.952E-06 98891 97715 96438 95044 93498 91751 89751 88609 87332 85837 84963 83972 82779 81250 78915 76176
 4570.00 5.916E-06 98884 97735 96467 95081 93560 91836 89858 88725 87458 85970 85108 84128 82961 81440 79124 76369
 4590.00 5.824E-06 98884 97699 96411 95021 93458 91707 89698 88565 87260 85766 84873 83860 82658 81095 78674 75824
 4610.00 5.813E-06 98865 97695 96422 95028 93497 91777 89799 88663 87390 85894 85034 84036 82849 81318 78995 76243
 4630.00 5.759E-06 98906 97743 96492 95121 93593 91891 89929 88800 87515 86039 85171 84181 82983 81455 79094 76315
 4650.00 5.601E-06 99125 98161 97090 95911 94590 93073 91269 90216 89020 87592 86752 85788 84610 83074 80718 77879
 4670.00 5.625E-06 99022 97938 96782 95502 94080 92480 90613 89529 88302 86844 86009 85013 83840 82311 79964 77156
 4690.00 5.641E-06 98936 97802 96561 95196 93689 92005 90055 88938 87679 86208 85339 84347 83177 81634 79294 76529
 4710.00 5.606E-06 98912 97752 96486 95112 93596 91902 89939 88833 87567 86086 85230 84231 83054 81520 79147 76311
 4730.00 5.584E-06 98854 97708 96454 95093 93571 91888 89936 88825 87572 86121 85261 84277 83112 81590 79262 76486
 4750.00 5.532E-06 98861 97704 96457 95083 93583 91884 89949 88829 87581 86117 85268 84291 83116 81598 79266 76482
 4770.00 5.487E-06 98870 97722 96464 95116 93603 91926 89976 88883 87625 86167 85311 84345 83160 81648 79297 76526
 4790.00 5.455E-06 98882 97727 96480 95124 93621 91934 90009 88909 87663 86214 85353 84381 83208 81705 79377 76590
 4810.00 5.396E-06 98870 97721 96479 95126 93625 91938 90011 88918 87676 86231 85378 84396 83228 81727 79392 76612
 4830.00 5.378E-06 98884 97750 96523 95184 93697 92042 90145 89048 87821 86389 85552 84585 83433 81945 79658 76943
 4850.00 5.325E-06 98911 97784 96563 95230 93765 92113 90216 89127 87925 86498 85653 84695 83549 82066 79775 77052
 4870.00 5.287E-06 98922 97787 96558 95215 93739 92094 90202 89105 87895 86457 85625 84660 83507 82012 79705 76962
 4890.00 5.249E-06 98895 97771 96552 95218 93751 92094 90208 89141 87922 86493 85654 84702 83559 82073 79787 77062
 4910.00 5.211E-06 98906 97774 96565 95241 93763 92132 90232 89158 87949 86509 85684 84725 83573 82076 79774 77010
 4930.00 5.168E-06 98936 97813 96614 95279 93827 92202 90344 89261 88061 86649 85817 84868 83746 82276 79992 77264
 4950.00 5.127E-06 98888 97776 96567 95260 93798 92179 90306 89253 88044 86639 85801 84864 83714 82251 79949 77219
 4970.00 5.087E-06 98919 97818 96619 95321 93867 92255 90407 89345 88146 86731 85925 84981 83841 82386 80126 77433
 4990.00 5.064E-06 98894 97769 96584 95261 93819 92200 90344 89277 88073 86671 85841 84893 83748 82267 79976 77212
 5010.00 5.024E-06 98925 97811 96636 95342 93909 92317 90466 89411 88217 86823 86027 85092 83957 82504 80255 77568
 5030.00 4.988E-06 98937 97835 96652 95369 93945 92342 90517 89455 88272 86889 86067 85144 84022 82578 80333 77626
 5050.00 4.932E-06 98925 97830 96655 95377 93958 92376 90552 89497 88321 86922 86111 85178 84063 82603 80353 77656
 5070.00 4.905E-06 98919 97839 96656 95392 93965 92396 90561 89521 88338 86972 86157 85219 84098 82650 80387 77676
 5090.00 4.877E-06 98913 97847 96678 95407 93992 92434 90609 89584 88415 87021 86221 85298 84171 82735 80480 77773
 5110.00 4.820E-06 98983 97925 96784 95539 94170 92614 90809 89793 88631 87261 86452 85519 84419 82967 80726 78008
 5130.00 4.740E-06 99114 98143 97089 95949 94662 93207 91519 90527 89409 88080 87300 86392 85295 83861 81646 78945
 5150.00 4.757E-06 98970 97919 96784 95522 94156 92600 90835 89804 88648 87282 86483 85558 84465 83015 80786 78116
 5170.00 4.743E-06 98967 97892 96753 95488 94118 92557 90786 89774 88615 87265 86464 85558 84461 83049 80835 78199
 5190.00 4.696E-06 98914 97849 96699 95443 94059 92504 90716 89693 88543 87181 86393 85477 84370 82943 80707 78024
 5210.00 4.656E-06 98948 97895 96757 95511 94137 92612 90829 89820 88681 87328 86534 85631 84536 83097 80863 78200
 5230.00 4.622E-06 98961 97901 96755 95500 94137 92622 90848 89831 88685 87343 86564 85656 84552 83124 80917 78256
 5250.00 4.600E-06 98957 97913 96783 95543 94174 92652 90891 89891 88761 87413 86630 85717 84630 83239 81043 78413
 5270.00 4.573E-06 98972 97923 96785 95561 94205 92674 90947 89941 88804 87492 86705 85808 84737 83337 81172 78570
 5290.00 4.525E-06 98961 97923 96773 95558 94188 92685 90939 89923 88796 87470 86674 85768 84685 83271 81083 78453
 5310.00 4.504E-06 98979 97913 96781 95560 94205 92695 90964 89964 88832 87500 86723 85813 84747 83326 81128 78486
 5330.00 4.468E-06 98948 97896 96777 95546 94203 92704 90980 89996 88876 87556 86773 85877 84803 83415 81222 78603
 5350.00 4.442E-06 98942 97906 96781 95565 94237 92729 91018 90027 88901 87573 86808 85907 84827 83431 81247 78613
 5370.00 4.407E-06 98956 97912 96801 95598 94282 92784 91082 90084 88972 87679 86907 86022 84956 83549 81393 78784
 5390.00 4.381E-06 98950 97923 96804 95595 94271 92787 91075 90094 88998 87674 86921 86031 84958 83565 81420 78818
 5410.00 4.353E-06 98966 97932 96830 95612 94303 92810 91110 90122 89019 87710 86929 86056 84976 83598 81438 78819
 5430.00 4.307E-06 98932 97910 96796 95612 94288 92802 91108 90132 89018 87718 86951 86069 85024 83631 81472 78848
 5450.00 4.293E-06 98975 97950 96832 95644 94340 92872 91172 90193 89099 87794 87049 86164 85115 83718 81575 78989
 5470.00 4.256E-06 98966 97932 96852 95677 94361 92904 91236 90273 89168 87876 87124 86255 85197 83811 81673 79065
 5490.00 4.229E-06 98983 97966 96879 95673 94372 92930 91227 90281 89170 87893 87136 86262 85197 83826 81674 79097
 5510.00 4.208E-06 99002 97980 96887 95699 94392 92918 91255 90280 89187 87880 87120 86264 85195 83817 81654 79064
 5530.00 4.184E-06 98972 97968 96893 95698 94407 92973 91300 90344 89269 88002 87237 86377 85349 83987 81883 79326
 5550.00 4.146E-06 98987 97974 96889 95707 94404 92957 91293 90328 89219 87940 87192 86324 85263 83888 81741 79161
 5570.00 4.130E-06 98983 97966 96901 95714 94431 93002 91356 90387 89322 88039 87312 86441 85400 84044 81937 79370
 5590.00 4.085E-06 98996 97993 96940 95765 94517 93097 91457 90502 89449 88176 87442 86585 85557 84211 82105 79535
 5610.00 4.068E-06 98992 97984 96903 95723 94444 93019 91372 90413 89356 88078 87340 86480 85447 84071 81981 79425
 5630.00 4.037E-06 99009 98018 96953 95789 94501 93064 91429 90488 89423 88135 87392 86549 85509 84147 82041 79490
 5650.00 4.022E-06 99005 98011 96967 95798 94530 93113 91472 90527 89458 88190 87469 86599 85579 84237 82123 79587
 5670.00 3.996E-06 98999 98023 96947 95796 94520 93118 91466 90541 89464 88213 87462 86612 85586 84234 82132 79580
 5690.00 3.961E-06 98965 97980 96920 95759 94496 93083 91442 90507 89447 88185 87453 86594 85559 84196 82075 79500
 5710.00 3.944E-06 98935 97946 96881 95740 94473 93078 91455 90517 89452 88210 87475 86613 85598 84229 82125 79564
 5730.00 3.918E-06 98954 97984 96912 95763 94513 93109 91501 90556 89510 88259 87519 86677 85656 84303 82210 79658
 5750.00 3.891E-06 98946 97970 96916 95785 94526 93138 91519 90594 89540 88306 87561 86739 85711 84374 82292 79722
 5770.00 3.864E-06 99042 98059 97024 95885 94643 93245 91641 90709 89674 88432 87707 86853 85844 84498 82428 79891
 5790.00 3.839E-06 99036 98046 97030 95884 94660 93280 91691 90779 89737 88513 87783 86950 85960 84631 82600 80099
 5810.00 3.814E-06 99030 98060 97011 95884 94651 93288 91689 90771 89722 88490 87756 86917 85920 84583 82538 80021
 5830.00 3.792E-06 99051 98075 97046 95912 94699 93302 91719 90796 89768 88528 87816 86973 85970 84652 82595 80090
 5850.00 3.770E-06 98966 98011 96976 95862 94642 93263 91671 90769 89735 88515 87772 86950 85942 84615 82546 80027
 5870.00 3.738E-06 99010 98074 97031 95934 94703 93339 91787 90877 89834 88630 87908 87079 86062 84751 82691 80177
 5890.00 3.699E-06 99108 98189 97188 96134 94945 93620 92079 91187 90187 88970 88267 87456 86456 85158 83104 80643
 5910.00 3.642E-06 99259 98435 97556 96595 95524 94289 92834 91982 91021 89841 89154 88358 87370 86079 84047 81576
 5930.00 3.670E-06 99019 98093 97112 96022 94823 93488 91935 91035 90000 88801 88093 87275 86267 84986 82943 80463
 5950.00 3.636E-06 99037 98130 97112 96040 94857 93537 91997 91117 90099 88916 88201 87376 86414 85094 83086 80611
 5970.00 3.626E-06 99007 98069 97049 95974 94760 93436 91892 90982 89989 88776 88058 87259 86266 84970 82929 80447
 5990.00 3.603E-06 99056 98113 97114 96031 94838 93505 91951 91063 90064 88870 88177 87344 86372 85096 83070 80600
 6010.00 3.577E-06 99022 98099 97093 96030 94828 93514 91977 91110 90103 88901 88202 87392 86413 85127 83114 80626
 6030.00 3.559E-06 99017 98089 97078 96010 94830 93481 91964 91065 90053 88873 88171 87356 86373 85080 83057 80584
 6050.00 3.537E-06 99010 98077 97088 96014 94826 93497 91971 91066 90076 88889 88182 87362 86373 85100 83065 80577
 6070.00 3.511E-06 99060 98149 97152 96070 94902 93592 92054 91171 90174 89006 88294 87496 86528 85246 83224 80803
 6090.00 3.487E-06 99054 98165 97161 96100 94953 93634 92114 91253 90250 89074 88385 87582 86607 85346 83338 80900
 6110.00 3.458E-06 99075 98178 97195 96154 94997 93696 92192 91353 90341 89185 88490 87710 86726 85454 83459 81001
 6130.00 3.447E-06 99043 98143 97157 96084 94923 93618 92109 91239 90252 89092 88396 87583 86626 85350 83319 80882
 6150.00 3.428E-06 99037 98133 97170 96091 94924 93641 92124 91249 90257 89090 88419 87602 86639 85356 83372 80922
 6170.00 3.406E-06 99031 98121 97152 96095 94950 93658 92161 91309 90311 89166 88462 87669 86700 85437 83470 81033
 6190.00 3.386E-06 99084 98198 97224 96161 95009 93739 92233 91376 90402 89220 88541 87744 86799 85529 83550 81128
 6210.00 3.366E-06 99079 98158 97207 96168 95009 93731 92246 91384 90404 89245 88562 87790 86809 85561 83601 81194
 6230.00 3.333E-06 99100 98230 97270 96250 95110 93849 92379 91539 90579 89409 88749 87969 87009 85779 83798 81398
 6250.00 3.319E-06 99066 98162 97198 96174 95029 93763 92287 91443 90449 89304 88641 87858 86894 85628 83670 81229
 6270.00 3.299E-06 99091 98212 97242 96211 95089 93816 92331 91482 90543 89391 88694 87936 86966 85723 83753 81328
 6290.00 3.283E-06 99086 98203 97259 96223 95065 93817 92324 91471 90527 89369 88699 87907 86963 85714 83734 81328
 6310.00 3.255E-06 99048 98187 97235 96221 95084 93856 92381 91551 90599 89462 88786 87988 87066 85806 83840 81444
 6330.00 3.245E-06 99106 98213 97257 96240 95100 93867 92388 91556 90601 89461 88783 88012 87057 85824 83883 81479
 6350.00 3.223E-06 99100 98231 97270 96246 95129 93888 92429 91592 90630 89482 88799 88024 87093 85852 83897 81508
 6370.00 3.203E-06 99063 98189 97253 96222 95098 93881 92413 91602 90634 89510 88854 88074 87137 85888 83953 81580
 6390.00 3.183E-06 99120 98241 97298 96293 95162 93905 92460 91643 90669 89570 88878 88124 87182 85925 83977 81590
 6420.00 3.157E-06 99113 98258 97308 96294 95185 93950 92493 91669 90719 89579 88914 88153 87235 85999 84067 81691
 6460.00 3.116E-06 99101 98267 97336 96309 95218 93999 92555 91720 90789 89666 89024 88254 87323 86104 84178 81804
 6500.00 3.077E-06 99058 98213 97303 96295 95223 93988 92590 91778 90835 89730 89080 88300 87390 86188 84270 81898
 6540.00 3.045E-06 99113 98259 97340 96355 95238 94023 92611 91790 90870 89754 89097 88342 87422 86207 84302 81938
 6580.00 3.010E-06 99037 98206 97276 96312 95216 93987 92591 91794 90864 89734 89103 88339 87409 86213 84319 81960
 6620.00 2.973E-06 99125 98285 97376 96401 95325 94114 92735 91927 90986 89909 89236 88496 87588 86377 84460 82139
 6660.00 2.941E-06 99082 98266 97348 96362 95308 94084 92690 91874 90955 89867 89221 88473 87555 86365 84461 82115
 6700.00 2.905E-06 99105 98279 97384 96420 95353 94148 92771 91979 91050 89948 89329 88571 87676 86472 84578 82238
 6740.00 2.870E-06 99129 98328 97422 96481 95401 94216 92857 92056 91150 90070 89443 88676 87770 86585 84704 82404
 6780.00 2.839E-06 99119 98274 97393 96442 95386 94188 92814 92039 91124 90032 89398 88658 87742 86580 84678 82353
 6820.00 2.806E-06 99180 98361 97470 96507 95474 94298 92944 92124 91233 90164 89522 88774 87883 86707 84818 82537
 6860.00 2.775E-06 99099 98270 97405 96432 95423 94234 92901 92108 91207 90126 89514 88757 87856 86667 84793 82523
 6900.00 2.743E-06 99089 98287 97412 96500 95443 94276 92964 92162 91250 90193 89573 88844 87933 86766 84907 82610
 6940.00 2.711E-06 99152 98340 97455 96533 95500 94356 93028 92254 91332 90299 89672 88934 88049 86868 85024 82700
 6980.00 2.683E-06 99180 98360 97503 96571 95527 94372 93067 92285 91390 90309 89713 88968 88073 86918 85054 82743
 7020.00 2.650E-06 99132 98340 97472 96566 95547 94415 93094 92302 91434 90377 89774 89057 88151 86981 85132 82868
 7060.00 2.623E-06 99161 98361 97522 96607 95578 94472 93138 92375 91498 90431 89821 89096 88220 87038 85170 82920
 7100.00 2.595E-06 99191 98382 97534 96609 95607 94489 93141 92370 91522 90443 89827 89133 88247 87052 85202 82929
 7140.00 2.567E-06 99143 98325 97507 96572 95598 94468 93144 92365 91508 90456 89832 89131 88235 87067 85197 82898
 7180.00 2.539E-06 99173 98425 97558 96652 95668 94525 93226 92477 91611 90547 89957 89208 88342 87200 85349 83064
 7220.00 2.510E-06 99203 98406 97570 96693 95697 94582 93307 92550 91673 90637 90000 89323 88446 87291 85458 83187
 7260.00 2.483E-06 99195 98429 97584 96698 95731 94603 93315 92549 91704 90656 90052 89327 88482 87314 85461 83206
 7300.00 2.459E-06 99146 98414 97560 96665 95689 94591 93290 92517 91663 90647 90037 89305 88451 87271 85441 83164
 7340.00 2.431E-06 99095 98355 97532 96627 95681 94570 93295 92555 91691 90662 90045 89346 88482 87330 85479 83217
 7380.00 2.407E-06 99128 98380 97549 96676 95721 94599 93311 92605 91732 90694 90112 89406 88533 87370 85542 83299
 7420.00 2.379E-06 99201 98445 97646 96763 95797 94704 93443 92686 91845 90836 90248 89533 88651 87516 85708 83438
 7460.00 2.330E-06 99356 98670 97983 97167 96309 95279 94120 93391 92575 91588 91030 90343 89485 88369 86567 84292
 7500.00 2.313E-06 99308 98617 97925 97103 96195 95201 93990 93256 92434 91483 90878 90186 89321 88197 86381 84176
 7540.00 2.305E-06 99176 98438 97657 96790 95835 94794 93536 92798 91931 90933 90325 89631 88807 87636 85857 83601
 7580.00 2.284E-06 99168 98424 97636 96760 95797 94746 93476 92776 91944 90937 90324 89623 88792 87653 85814 83581
 7620.00 2.260E-06 99204 98496 97699 96814 95885 94823 93584 92832 91991 90973 90398 89690 88850 87699 85885 83673
 7660.00 2.238E-06 99196 98436 97677 96828 95845 94817 93566 92851 92002 91019 90393 89723 88874 87712 85925 83691
 7700.00 2.213E-06 99232 98464 97695 96837 95933 94849 93629 92906 92047 91053 90465 89788 88929 87799 85992 83778
 7740.00 2.192E-06 99224 98495 97673 96852 95894 94845 93613 92929 92062 91104 90511 89827 88960 87819 86040 83805
 7780.00 2.171E-06 99217 98480 97697 96868 95947 94887 93643 92953 92123 91110 90511 89820 88991 87840 86043 83832
 7820.00 2.149E-06 99209 98464 97720 96882 95952 94881 93671 92973 92136 91159 90554 89856 89018 87901 86087 83853
 7860.00 2.128E-06 99154 98449 97697 96852 95912 94878 93656 92951 92152 91165 90555 89897 89051 87923 86137 83882
 7900.00 2.106E-06 99240 98528 97768 96914 96011 94967 93780 93067 92213 91263 90646 89981 89126 88034 86230 83998
 7940.00 2.085E-06 99233 98513 97746 96930 96019 95012 93765 93046 92230 91271 90695 90024 89161 88058 86235 84029
 7980.00 2.065E-06 99177 98450 97724 96901 95981 94964 93753 93027 92252 91283 90702 89976 89153 88039 86247 84068
 8020.00 2.044E-06 99266 98532 97798 96967 96086 95059 93836 93151 92319 91341 90753 90117 89237 88160 86350 84149
 8060.00 2.024E-06 99209 98518 97777 96937 96047 95010 93824 93132 92342 91354 90810 90119 89279 88142 86364 84190
 8100.00 2.006E-06 99153 98455 97707 96909 96012 94965 93769 93071 92273 91326 90728 90080 89232 88136 86341 84148
 8140.00 1.985E-06 99194 98489 97783 96977 96071 95063 93854 93199 92393 91436 90831 90176 89320 88212 86448 84232
 8180.00 1.966E-06 99288 98576 97813 97050 96134 95117 93947 93235 92472 91506 90895 90234 89420 88301 86521 84334
 8220.00 1.949E-06 99282 98563 97845 97024 96152 95126 93946 93227 92458 91483 90918 90251 89430 88302 86557 84351
 8260.00 1.930E-06 99223 98549 97824 96995 96114 95130 93938 93264 92435 91503 90933 90259 89430 88342 86580 84352
 8300.00 1.912E-06 99268 98588 97856 97019 96182 95188 93985 93305 92521 91527 91004 90324 89487 88389 86611 84414
 8340.00 1.892E-06 99313 98626 97886 97093 96247 95243 94080 93393 92600 91649 91068 90433 89588 88478 86734 84514
 8380.00 1.875E-06 99307 98667 97920 97120 96267 95253 94080 93440 92640 91680 91093 90453 89600 88533 86773 84533
 8420.00 1.859E-06 99247 98548 97848 97041 96181 95212 94029 93384 92577 91608 91070 90371 89564 88488 86713 84508
 8460.00 1.841E-06 99294 98642 97936 97121 96252 95274 94134 93427 92667 91689 91146 90494 89680 88539 86801 84628
 8500.00 1.825E-06 99288 98575 97863 97096 96219 95233 94082 93425 92603 91671 91123 90466 89644 88548 86795 84603
 8540.00 1.808E-06 99226 98562 97843 97069 96239 95243 94082 93418 92644 91704 91150 90487 89657 88551 86781 84624
 8580.00 1.791E-06 99330 98660 97934 97152 96315 95366 94193 93523 92741 91792 91234 90564 89782 88666 86935 84701
 8620.00 1.775E-06 99324 98648 97915 97127 96282 95324 94197 93521 92732 91775 91211 90592 89746 88676 86930 84732
 8660.00 1.759E-06 99318 98692 97953 97214 96362 95338 94201 93576 92780 91814 91302 90620 89824 88744 86981 84764
 8700.00 1.743E-06 99254 98623 97935 97131 96328 95353 94205 93517 92771 91853 91279 90591 89788 88698 86976 84796
 8740.00 1.728E-06 99306 98611 97917 97164 96296 95370 94213 93576 92766 91840 91319 90625 89815 88773 86979 84838
 8780.00 1.712E-06 99299 98657 97956 97196 96379 95386 94276 93575 92815 91881 91355 90713 89895 88785 87033 84871
 8820.00 1.696E-06 99233 98585 97877 97170 96344 95342 94222 93573 92807 91922 91333 90684 89917 88797 87087 84847
 8860.00 1.681E-06 99227 98632 97918 97145 96312 95419 94289 93635 92861 91969 91374 90720 89946 88876 87091 84949
 8900.00 1.666E-06 99280 98619 97959 97179 96339 95438 94298 93637 92857 91957 91417 90756 89976 88896 87155 84994
 8940.00 1.652E-06 99334 98668 98002 97215 96429 95460 94370 93705 92918 92010 91465 90799 90012 88923 87167 84988
 8980.00 1.636E-06 99328 98716 98044 97249 96455 95538 94377 93765 92971 92054 91504 90892 90098 88998 87286 85086
 9020.00 1.623E-06 99261 98644 97967 97227 96426 95441 94331 93715 92976 92052 91497 90819 90018 88971 87246 85028
 9060.00 1.610E-06 99317 98696 98012 97267 96460 95528 94410 93727 92981 92050 91553 90870 90062 89006 87267 85093
 9100.00 1.594E-06 99373 98745 98055 97302 96487 95609 94479 93852 93099 92158 91593 90966 90151 89084 87390 85194
 9140.00 1.581E-06 99367 98735 98102 97343 96521 95572 94497 93865 93106 92157 91651 91018 90196 89121 87413 85199
 9180.00 1.569E-06 99299 98662 98024 97259 96431 95539 94455 93754 93053 92097 91587 90950 90121 89038 87317 85150
 9220.00 1.556E-06 99293 98650 98008 97301 96465 95566 94473 93766 93059 92159 91581 90938 90167 89075 87339 85154
 9260.00 1.542E-06 99287 98638 97990 97276 96433 95525 94423 93839 93061 92153 91634 90986 90208 89105 87354 85214
 9300.00 1.529E-06 99411 98757 98103 97384 96534 95618 94572 93918 93133 92283 91694 91040 90255 89209 87443 85285
 9340.00 1.516E-06 99274 98681 98021 97296 96504 95580 94459 93865 93074 92216 91689 91029 90237 89182 87401 85224
 9380.00 1.504E-06 99269 98670 98005 97274 96476 95545 94481 93816 93085 92221 91689 91024 90226 89162 87434 85306
 9420.00 1.491E-06 99329 98726 98055 97317 96579 95641 94567 93897 93159 92287 91751 91080 90342 89269 87525 85379
 9460.00 1.479E-06 99324 98715 98039 97363 96552 95673 94591 93915 93171 92292 91751 91143 90331 89249 87559 85396
 9500.00 1.466E-06 99386 98772 98158 97408 96589 95703 94611 93997 93247 92360 91814 91201 90382 89359 87653 85471
 9540.00 1.454E-06 99381 98762 98143 97387 96630 95736 94635 94017 93260 92366 91816 91197 90440 89340 87620 85488
 9580.00 1.443E-06 99307 98683 98060 97367 96535 95634 94595 93971 93209 92308 91823 91199 90367 89328 87595 85447
 9620.00 1.430E-06 99371 98811 98112 97413 96643 95734 94685 94056 93357 92448 91888 91259 90490 89441 87692 85524
 9660.00 1.419E-06 99366 98732 98097 97393 96617 95701 94644 94010 93305 92459 91896 91261 90486 89429 87667 85553
 9700.00 1.408E-06 99361 98722 98082 97372 96591 95739 94673 94034 93324 92401 91903 91264 90483 89418 87713 85511
 9740.00 1.395E-06 99355 98781 98136 97419 96703 95771 94695 94122 93405 92473 91971 91326 90538 89534 87814 85663
 9780.00 1.384E-06 99422 98844 98194 97471 96749 95809 94798 94147 93425 92558 91980 91402 90607 89523 87861 85694
 9820.00 1.374E-06 99272 98690 98035 97380 96579 95706 94687 94032 93304 92431 91921 91266 90466 89447 87773 85590
 9860.00 1.363E-06 99340 98753 98092 97432 96625 95745 94718 94131 93397 92517 92003 91343 90609 89508 87821 85693
 9900.00 1.353E-06 99335 98744 98078 97413 96674 95787 94752 94087 93348 92535 91944 91353 90540 89505 87805 85661
 9940.00 1.341E-06 99403 98807 98210 97465 96719 95824 94780 94183 93438 92617 92095 91424 90679 89635 87919 85757
 9980.00 1.331E-06 99399 98798 98122 97446 96694 95793 94816 94140 93464 92562 92036 91435 90684 89632 87904 85725
10020.00 1.320E-06 99318 98712 98106 97424 96667 95833 94773 94167 93409 92576 92045 91439 90606 89621 87879 85758
20000.00 3.356E-07 99613 99255 98838 98391 97855 97229 96454 95977 95411 94696 94279 93743 93057 92104 90554 88558
40000.00 8.357E-08 99641 99342 99007 98624 98181 97643 96961 96542 96027 95369 94950 94460 93814 92940 91480 89637
60000.00 3.685E-08 99701 99403 99104 98725 98318 97802 97123 96716 96228 95577 95197 94708 94084 93243 91832 90095
80000.00 2.057E-08 99757 99465 99174 98785 98396 97861 97229 96840 96354 95722 95333 94847 94263 93437 92076 90423
